# Wavelength Flux(Normalised) Flux(Original)
3847.2994  1.203984e-01  9.966133e+02
3847.6370  1.157696e-01  1.025853e+03
3847.9746  9.962794e-02  1.023636e+03
3848.3122  7.793018e-02  1.005174e+03
3848.6498  5.834866e-02  9.900365e+02
3848.9874  4.978945e-02  1.000925e+03
3849.3250  4.225205e-02  1.012507e+03
3849.6626  1.726588e-02  9.779279e+02
3850.0002  8.142382e-03  9.818860e+02
3850.3378  1.100657e-02  1.014605e+03
3850.6755  1.511120e-02  1.048845e+03
3851.0131  1.423878e-02  1.068877e+03
3851.3507  2.155442e-02  1.108207e+03
3851.6883  1.379554e-02  1.107798e+03
3852.0259  4.882356e-05  1.090792e+03
3852.3635 -8.492807e-03  1.085683e+03
3852.7011 -1.006105e-03  1.120024e+03
3853.0387 -3.161913e-03  1.128650e+03
3853.3763 -2.127861e-02  1.095561e+03
3853.7139 -1.979119e-02  1.111164e+03
3854.0515 -1.955834e-02  1.122514e+03
3854.3891 -2.694464e-02  1.113490e+03
3854.7267 -3.130642e-02  1.111180e+03
3855.0643 -3.631103e-02  1.106312e+03
3855.4019 -2.309407e-02  1.146854e+03
3855.7395 -2.205885e-02  1.155608e+03
3856.0771 -2.406883e-02  1.155828e+03
3856.4147 -2.300241e-02  1.163106e+03
3856.7523 -3.469254e-02  1.137255e+03
3857.0899 -3.874998e-02  1.130113e+03
3857.4275 -2.986500e-02  1.155205e+03
3857.7651 -2.235213e-02  1.176201e+03
3858.1027 -3.183898e-03  1.226230e+03
3858.4403 -7.982647e-03  1.214826e+03
3858.7779 -2.970297e-02  1.159920e+03
3859.1155 -1.963936e-02  1.185280e+03
3859.4532 -6.443892e-03  1.218145e+03
3859.7908 -2.481681e-03  1.227129e+03
3860.1284  1.436853e-02  1.268459e+03
3860.4660  2.118772e-02  1.283937e+03
3860.8036  3.821263e-03  1.237627e+03
3861.1412 -5.122907e-03  1.212396e+03
3861.4788 -1.215652e-02  1.191724e+03
3861.8164 -1.214137e-02  1.188689e+03
3862.1540 -5.913774e-03  1.201189e+03
3862.4916  4.323637e-03  1.223648e+03
3862.8292 -1.855414e-02  1.161771e+03
3863.1668 -2.973488e-02  1.129424e+03
3863.5044 -1.599931e-02  1.160210e+03
3863.8420 -2.594888e-03  1.190006e+03
3864.1796  2.235598e-02  1.249005e+03
3864.5172  3.427511e-02  1.274782e+03
3864.8548  2.425601e-02  1.244727e+03
3865.1924  3.282028e-02  1.261801e+03
3865.5300  3.468755e-02  1.261793e+03
3865.8676  2.157104e-02  1.223666e+03
3866.2052  2.013552e-02  1.215175e+03
3866.5428  2.378264e-02  1.219572e+03
3866.8804  3.458058e-02  1.242121e+03
3867.2180  3.424449e-02  1.236383e+03
3867.5556  1.589628e-02  1.184894e+03
3867.8933  1.922672e-02  1.188501e+03
3868.2309  4.193142e-02  1.241361e+03
3868.5685  5.430673e-02  1.268019e+03
3868.9061  4.621893e-02  1.242741e+03
3869.2437  3.123840e-02  1.200010e+03
3869.5813  3.963294e-02  1.216733e+03
3869.9189  6.573117e-02  1.278509e+03
3870.2565  6.647383e-02  1.275951e+03
3870.5941  4.323176e-02  1.212549e+03
3870.9317  3.917029e-02  1.197973e+03
3871.2693  4.855610e-02  1.217665e+03
3871.6069  5.459547e-02  1.228964e+03
3871.9445  5.695546e-02  1.231030e+03
3872.2821  5.231932e-02  1.215443e+03
3872.6197  6.214587e-02  1.236724e+03
3872.9573  7.686675e-02  1.270568e+03
3873.2949  5.564448e-02  1.213231e+03
3873.6325  3.828660e-02  1.165849e+03
3873.9701  3.838094e-02  1.162946e+03
3874.3077  3.665234e-02  1.155556e+03
3874.6453  3.364012e-02  1.145052e+03
3874.9829  3.467130e-02  1.144971e+03
3875.3205  4.044942e-02  1.157101e+03
3875.6581  4.827123e-02  1.174578e+03
3875.9957  4.683815e-02  1.168699e+03
3876.3334  3.343154e-02  1.132558e+03
3876.6710  3.667079e-02  1.138866e+03
3877.0086  3.664475e-02  1.137039e+03
3877.3462  5.029487e-02  1.170119e+03
3877.6838  4.518393e-02  1.155697e+03
3878.0214  2.306554e-02  1.098229e+03
3878.3590  1.312051e-02  1.071852e+03
3878.6966  1.077888e-02  1.064955e+03
3879.0342  1.511239e-03  1.040625e+03
3879.3718 -6.462279e-03  1.019746e+03
3879.7094  8.666347e-03  1.057721e+03
3880.0470  1.247735e-02  1.067106e+03
3880.3846  2.573933e-03  1.041810e+03
3880.7222 -9.035036e-03  1.012342e+03
3881.0598 -2.117717e-02  9.816793e+02
3881.3974 -1.476622e-02  9.983100e+02
3881.7350 -8.201215e-03  1.015490e+03
3882.0726 -8.684266e-03  1.014920e+03
3882.4102 -2.765976e-02  9.675234e+02
3882.7478 -5.412599e-02  9.012500e+02
3883.0854 -5.381510e-02  9.031565e+02
3883.4230 -4.480156e-02  9.273223e+02
3883.7606 -5.393860e-02  9.055237e+02
3884.0982 -8.066414e-02  8.391869e+02
3884.4358 -9.977882e-02  7.923298e+02
3884.7734 -1.084259e-01  7.722082e+02
3885.1111 -1.279529e-01  7.245853e+02
3885.4487 -1.278961e-01  7.268535e+02
3885.7863 -1.211046e-01  7.463666e+02
3886.1239 -1.289862e-01  7.287353e+02
3886.4615 -1.596023e-01  6.534763e+02
3886.7991 -1.852088e-01  5.910728e+02
3887.1367 -1.929803e-01  5.741049e+02
3887.4743 -2.018226e-01  5.545399e+02
3887.8119 -2.186780e-01  5.147375e+02
3888.1495 -2.389743e-01  4.663110e+02
3888.4871 -2.512795e-01  4.383015e+02
3888.8247 -2.619636e-01  4.145225e+02
3889.1623 -2.593371e-01  4.246695e+02
3889.4999 -2.466159e-01  4.605692e+02
3889.8375 -2.352547e-01  4.931178e+02
3890.1751 -2.169162e-01  5.434939e+02
3890.5127 -2.237760e-01  5.299512e+02
3890.8503 -2.234290e-01  5.348131e+02
3891.1879 -2.240846e-01  5.372207e+02
3891.5255 -2.002169e-01  6.020206e+02
3891.8631 -1.884034e-01  6.362836e+02
3892.2007 -1.866930e-01  6.449634e+02
3892.5383 -1.683766e-01  6.959127e+02
3892.8759 -1.462526e-01  7.566141e+02
3893.2135 -1.411925e-01  7.740396e+02
3893.5512 -1.366348e-01  7.902612e+02
3893.8888 -1.382917e-01  7.907649e+02
3894.2264 -1.352186e-01  8.033521e+02
3894.5640 -1.164440e-01  8.558940e+02
3894.9016 -1.091161e-01  8.794168e+02
3895.2392 -8.736678e-02  9.396365e+02
3895.5768 -6.542620e-02  1.000398e+03
3895.9144 -6.775180e-02  9.995637e+02
3896.2520 -6.121359e-02  1.021299e+03
3896.5896 -5.991316e-02  1.029775e+03
3896.9272 -5.936280e-02  1.036390e+03
3897.2648 -4.548523e-02  1.076906e+03
3897.6024 -4.339718e-02  1.087511e+03
3897.9400 -5.200058e-02  1.070990e+03
3898.2776 -3.913934e-02  1.109036e+03
3898.6152 -2.607847e-02  1.147621e+03
3898.9528 -2.121071e-02  1.165420e+03
3899.2904 -2.745739e-02  1.155010e+03
3899.6280 -1.937474e-02  1.181029e+03
3899.9656 -2.079064e-02  1.182938e+03
3900.3032 -2.145998e-02  1.186764e+03
3900.6408 -7.757935e-03  1.227118e+03
3900.9784 -6.561165e-05  1.252219e+03
3901.3160  2.091319e-03  1.263270e+03
3901.6536  1.071527e-02  1.290761e+03
3901.9912  2.435502e-02  1.331004e+03
3902.3289  1.855756e-02  1.321871e+03
3902.6665  7.004163e-03  1.298119e+03
3903.0041  2.396682e-02  1.346815e+03
3903.3417  2.314100e-02  1.350318e+03
3903.6793  2.885295e-02  1.370429e+03
3904.0169  4.158510e-02  1.408370e+03
3904.3545  3.113810e-02  1.387418e+03
3904.6921  2.313510e-02  1.372667e+03
3905.0297  3.352822e-02  1.404641e+03
3905.3673  3.517720e-02  1.414389e+03
3905.7049  4.246505e-02  1.438449e+03
3906.0425  4.259364e-02  1.444306e+03
3906.3801  3.733196e-02  1.436451e+03
3906.7177  3.980224e-02  1.448220e+03
3907.0553  3.629090e-02  1.444773e+03
3907.3929  3.820138e-02  1.455078e+03
3907.7305  4.572540e-02  1.479621e+03
3908.0681  3.642250e-02  1.461390e+03
3908.4057  1.421729e-02  1.410353e+03
3908.7433  1.096782e-02  1.407447e+03
3909.0809  2.487784e-02  1.448105e+03
3909.4185  3.470193e-02  1.478353e+03
3909.7561  3.999787e-02  1.497065e+03
3910.0937  4.968538e-02  1.526900e+03
3910.4313  4.728276e-02  1.525986e+03
3910.7690  6.366926e-02  1.572771e+03
3911.1066  6.155164e-02  1.572509e+03
3911.4442  5.195393e-02  1.553206e+03
3911.7818  5.929408e-02  1.576896e+03
3912.1194  6.213085e-02  1.589105e+03
3912.4570  6.027684e-02  1.589356e+03
3912.7946  4.301878e-02  1.550431e+03
3913.1322  3.544162e-02  1.536058e+03
3913.4698  1.958757e-02  1.500614e+03
3913.8074 -1.187840e-02  1.425463e+03
3914.1450  3.840203e-03  1.470142e+03
3914.4826  3.916740e-02  1.564592e+03
3914.8202  3.762833e-02  1.565335e+03
3915.1578  3.224646e-02  1.556269e+03
3915.4954  3.190480e-02  1.559959e+03
3915.8330  3.829231e-02  1.580698e+03
3916.1706  4.040064e-02  1.590516e+03
3916.5082  3.815174e-02  1.589216e+03
3916.8458  3.402857e-02  1.583104e+03
3917.1834  2.931335e-02  1.575438e+03
3917.5210  2.751890e-02  1.575142e+03
3917.8586  2.473610e-02  1.572284e+03
3918.1962  1.450043e-02  1.550440e+03
3918.5338  2.157552e-02  1.572524e+03
3918.8714  3.747484e-02  1.616975e+03
3919.2090  2.885996e-02  1.599094e+03
3919.5467  2.284766e-02  1.587773e+03
3919.8843  3.156172e-02  1.613812e+03
3920.2219  2.927219e-02  1.611844e+03
3920.5595  3.078994e-02  1.619496e+03
3920.8971  3.385840e-02  1.631035e+03
3921.2347  3.373376e-02  1.634409e+03
3921.5723  3.373890e-02  1.638060e+03
3921.9099  3.188137e-02  1.636926e+03
3922.2475  4.980376e-02  1.685991e+03
3922.5851  5.039806e-02  1.690981e+03
3922.9227  3.531263e-02  1.656083e+03
3923.2603  2.440944e-02  1.631758e+03
3923.5979  3.957763e-02  1.673616e+03
3923.9355  4.895847e-02  1.700719e+03
3924.2731  4.598426e-02  1.696382e+03
3924.6107  4.429462e-02  1.695256e+03
3924.9483  3.793865e-02  1.682224e+03
3925.2859  3.019462e-02  1.665614e+03
3925.6235  3.188111e-02  1.672912e+03
3925.9611  4.102845e-02  1.699113e+03
3926.2987  5.104451e-02  1.727472e+03
3926.6363  4.622459e-02  1.718089e+03
3926.9739  4.071105e-02  1.706895e+03
3927.3115  1.375826e-02  1.641183e+03
3927.6491  1.040253e-02  1.635373e+03
3927.9868  1.402183e-02  1.647234e+03
3928.3244  8.397632e-03  1.635564e+03
3928.6620  7.711888e-03  1.636393e+03
3928.9996  2.188166e-02  1.674917e+03
3929.3372  3.712468e-02  1.716120e+03
3929.6748  3.745813e-02  1.719399e+03
3930.0124  2.002139e-02  1.677486e+03
3930.3500  1.780933e-02  1.674208e+03
3930.6876  2.166334e-02  1.686297e+03
3931.0252  2.006602e-02  1.684492e+03
3931.3628  1.077094e-02  1.663088e+03
3931.7004 -1.240240e-02  1.606383e+03
3932.0380 -4.259567e-03  1.629196e+03
3932.3756  2.044149e-03  1.647295e+03
3932.7132 -2.156967e-02  1.589348e+03
3933.0508 -5.107686e-02  1.516387e+03
3933.3884 -5.069989e-02  1.519310e+03
3933.7260 -5.243648e-02  1.516824e+03
3934.0636 -7.321083e-02  1.465934e+03
3934.4012 -8.287589e-02  1.443230e+03
3934.7388 -7.978515e-02  1.452896e+03
3935.0764 -5.649962e-02  1.513833e+03
3935.4140 -3.941502e-02  1.558980e+03
3935.7516 -1.340220e-02  1.626775e+03
3936.0892  1.079720e-02  1.689930e+03
3936.4268 -2.048423e-03  1.658937e+03
3936.7645 -1.229370e-02  1.634519e+03
3937.1021  5.028217e-03  1.680104e+03
3937.4397  2.730212e-02  1.738240e+03
3937.7773  3.471766e-02  1.758597e+03
3938.1149  3.367552e-02  1.757439e+03
3938.4525  2.566226e-02  1.738541e+03
3938.7901  1.996222e-02  1.725493e+03
3939.1277  2.656019e-02  1.743661e+03
3939.4653  1.830774e-02  1.724075e+03
3939.8029  1.383461e-02  1.714066e+03
3940.1405  2.115895e-02  1.734004e+03
3940.4781  2.204150e-02  1.737553e+03
3940.8157  1.843062e-03  1.687522e+03
3941.1533  2.019731e-02  1.735413e+03
3941.4909  5.064636e-02  1.814011e+03
3941.8285  2.878691e-02  1.759696e+03
3942.1661  1.361530e-02  1.722352e+03
3942.5037  3.150178e-02  1.768975e+03
3942.8413  3.584971e-02  1.781185e+03
3943.1789  2.527947e-02  1.755477e+03
3943.5165  2.137185e-02  1.746679e+03
3943.8541  7.058865e-03  1.711430e+03
3944.1917  2.386140e-03  1.700658e+03
3944.5293  2.794253e-02  1.766670e+03
3944.8669  2.058577e-02  1.749051e+03
3945.2046  8.279085e-04  1.699915e+03
3945.5422  3.865487e-03  1.708679e+03
3945.8798  1.684448e-02  1.742689e+03
3946.2174  1.776683e-02  1.746058e+03
3946.5550  1.324749e-02  1.735594e+03
3946.8926  2.338360e-02  1.762353e+03
3947.2302  1.481881e-02  1.741594e+03
3947.5678 -1.299206e-03  1.701638e+03
3947.9054  1.330480e-02  1.739727e+03
3948.2430  1.716733e-02  1.750521e+03
3948.5806  2.953135e-02  1.782908e+03
3948.9182  3.160367e-02  1.789145e+03
3949.2558  2.128800e-02  1.763906e+03
3949.5934  1.377867e-02  1.745795e+03
3949.9310  1.548879e-02  1.751103e+03
3950.2686  2.106109e-02  1.766223e+03
3950.6062  1.766785e-02  1.758564e+03
3950.9438  5.952855e-03  1.729764e+03
3951.2814  1.130200e-02  1.744317e+03
3951.6190  1.770070e-02  1.761538e+03
3951.9566  1.942517e-02  1.766886e+03
3952.2942  2.018834e-02  1.769795e+03
3952.6318  1.123229e-02  1.748015e+03
3952.9694  9.564949e-03  1.744757e+03
3953.3070  1.797306e-03  1.726006e+03
3953.6446 -1.963394e-02  1.672547e+03
3953.9823 -1.481039e-02  1.685796e+03
3954.3199 -1.488187e-02  1.686615e+03
3954.6575 -8.386677e-03  1.704125e+03
3954.9951 -7.753922e-03  1.706750e+03
3955.3327 -1.589772e-02  1.687085e+03
3955.6703 -1.557999e-02  1.688927e+03
3956.0079 -4.207255e-03  1.718864e+03
3956.3455 -3.348161e-03  1.722101e+03
3956.6831 -2.367533e-03  1.725658e+03
3957.0207 -1.818281e-02  1.686556e+03
3957.3583 -3.800544e-02  1.637285e+03
3957.6959 -4.788391e-02  1.613290e+03
3958.0335 -6.106317e-02  1.580922e+03
3958.3711 -4.872563e-02  1.613394e+03
3958.7087 -3.463371e-02  1.650338e+03
3959.0463 -4.452638e-02  1.626362e+03
3959.3839 -6.318989e-02  1.580119e+03
3959.7215 -7.971272e-02  1.539330e+03
3960.0591 -8.273862e-02  1.532847e+03
3960.3967 -9.244281e-02  1.509413e+03
3960.7343 -1.123710e-01  1.460022e+03
3961.0719 -1.220119e-01  1.436784e+03
3961.4095 -1.301306e-01  1.417430e+03
3961.7471 -1.275284e-01  1.425332e+03
3962.0847 -1.328901e-01  1.413020e+03
3962.4224 -1.457832e-01  1.381593e+03
3962.7600 -1.585962e-01  1.350389e+03
3963.0976 -1.721540e-01  1.317313e+03
3963.4352 -1.892800e-01  1.275192e+03
3963.7728 -1.991483e-01  1.251529e+03
3964.1104 -1.932967e-01  1.267825e+03
3964.4480 -2.017197e-01  1.247876e+03
3964.7856 -2.158985e-01  1.213327e+03
3965.1232 -2.341930e-01  1.168343e+03
3965.4608 -2.555901e-01  1.115499e+03
3965.7984 -2.787817e-01  1.058118e+03
3966.1360 -2.863529e-01  1.040444e+03
3966.4736 -2.980907e-01  1.012208e+03
3966.8112 -3.127010e-01  9.766974e+02
3967.1488 -3.393251e-01  9.106888e+02
3967.4864 -3.617208e-01  8.554464e+02
3967.8240 -3.701787e-01  8.356374e+02
3968.1616 -4.018623e-01  7.568467e+02
3968.4992 -4.264774e-01  6.960383e+02
3968.8368 -4.388599e-01  6.663319e+02
3969.1744 -4.445803e-01  6.535754e+02
3969.5120 -4.536307e-01  6.323842e+02
3969.8496 -4.690096e-01  5.951402e+02
3970.1872 -4.646799e-01  6.079919e+02
3970.5248 -4.531894e-01  6.390615e+02
3970.8625 -4.572119e-01  6.307452e+02
3971.2001 -4.509765e-01  6.485153e+02
3971.5377 -4.320540e-01  6.985432e+02
3971.8753 -4.253788e-01  7.174822e+02
3972.2129 -4.245199e-01  7.216708e+02
3972.5505 -4.085337e-01  7.643168e+02
3972.8881 -3.875000e-01  8.198126e+02
3973.2257 -3.730768e-01  8.585403e+02
3973.5633 -3.547271e-01  9.072700e+02
3973.9009 -3.337965e-01  9.625825e+02
3974.2385 -3.312013e-01  9.713400e+02
3974.5761 -3.334569e-01  9.678000e+02
3974.9137 -3.053198e-01  1.041500e+03
3975.2513 -2.836192e-01  1.098875e+03
3975.5889 -2.421311e-01  1.206548e+03
3975.9265 -2.295113e-01  1.240905e+03
3976.2641 -2.171119e-01  1.274729e+03
3976.6017 -1.954844e-01  1.332024e+03
3976.9393 -1.936668e-01  1.339018e+03
3977.2769 -1.967133e-01  1.333680e+03
3977.6145 -1.795898e-01  1.379612e+03
3977.9521 -1.503129e-01  1.456446e+03
3978.2897 -1.424980e-01  1.478781e+03
3978.6273 -1.503328e-01  1.461383e+03
3978.9649 -1.375171e-01  1.496475e+03
3979.3025 -1.241131e-01  1.533088e+03
3979.6402 -1.095208e-01  1.572745e+03
3979.9778 -1.082106e-01  1.578684e+03
3980.3154 -1.017226e-01  1.597804e+03
3980.6530 -9.439906e-02  1.619072e+03
3980.9906 -8.221874e-02  1.652704e+03
3981.3282 -9.766740e-02  1.616168e+03
3981.6658 -9.672891e-02  1.621291e+03
3982.0034 -8.059746e-02  1.665036e+03
3982.3410 -6.015388e-02  1.719761e+03
3982.6786 -5.672789e-02  1.731277e+03
3983.0162 -6.608085e-02  1.710353e+03
3983.3538 -4.782939e-02  1.759582e+03
3983.6914 -3.328116e-02  1.799428e+03
3984.0290 -3.960621e-02  1.786268e+03
3984.3666 -6.327759e-02  1.729063e+03
3984.7042 -6.749018e-02  1.721317e+03
3985.0418 -4.123443e-02  1.791000e+03
3985.3794 -2.134119e-02  1.844543e+03
3985.7170 -2.249563e-02  1.844636e+03
3986.0546 -2.176077e-02  1.849551e+03
3986.3922 -2.316673e-02  1.849050e+03
3986.7298 -2.628039e-02  1.844233e+03
3987.0674 -8.302626e-03  1.893021e+03
3987.4050  1.840621e-02  1.964013e+03
3987.7426  2.143106e-02  1.974856e+03
3988.0803  1.204290e-02  1.954184e+03
3988.4179  5.915420e-03  1.941818e+03
3988.7555  8.234827e-03  1.950931e+03
3989.0931  1.579397e-02  1.973377e+03
3989.4307  3.176461e-02  2.017213e+03
3989.7683  2.536445e-02  2.004234e+03
3990.1059  1.961274e-02  1.992923e+03
3990.4435  2.422948e-02  2.007972e+03
3990.7811  2.007645e-02  2.000761e+03
3991.1187  2.250127e-02  2.010279e+03
3991.4563  1.783442e-02  2.001799e+03
3991.7939 -5.869942e-03  1.944972e+03
3992.1315  2.293507e-03  1.969123e+03
3992.4691  2.813042e-02  2.038193e+03
3992.8067  3.097263e-02  2.048860e+03
3993.1443  3.475343e-02  2.061929e+03
3993.4819  5.322525e-02  2.112337e+03
3993.8195  4.648836e-02  2.098718e+03
3994.1571  4.837012e-02  2.107011e+03
3994.4947  3.619222e-02  2.079600e+03
3994.8323  3.016199e-02  2.067823e+03
3995.1699  3.060790e-02  2.072513e+03
3995.5075  8.613005e-03  2.020206e+03
3995.8451 -1.914289e-03  1.997047e+03
3996.1827  1.597052e-02  2.046085e+03
3996.5203  5.396808e-02  2.146232e+03
3996.8580  6.153054e-02  2.169072e+03
3997.1956  3.680850e-02  2.109904e+03
3997.5332  2.636902e-02  2.087034e+03
3997.8708  2.881056e-02  2.096900e+03
3998.2084  2.960152e-02  2.102585e+03
3998.5460  1.341731e-02  2.065156e+03
3998.8836  6.319153e-03  2.050821e+03
3999.2212  1.415599e-02  2.074439e+03
3999.5588  2.482982e-02  2.105275e+03
3999.8964  2.407023e-02  2.107074e+03
4000.2340  4.748233e-02  2.170292e+03
4000.5716  5.710104e-02  2.198476e+03
4000.9092  4.494164e-02  2.171341e+03
4001.2468  4.377067e-02  2.172131e+03
4001.5844  4.337817e-02  2.174907e+03
4001.9220  3.660863e-02  2.161490e+03
4002.2596  2.237225e-02  2.129110e+03
4002.5972  2.618164e-02  2.142583e+03
4002.9348  3.872946e-02  2.178263e+03
4003.2724  2.999440e-02  2.159880e+03
4003.6100  1.710491e-02  2.130948e+03
4003.9476  2.818675e-02  2.162921e+03
4004.2852  3.817602e-02  2.192124e+03
4004.6228  3.342599e-02  2.183886e+03
4004.9604  1.929283e-02  2.151815e+03
4005.2981  1.949950e-02  2.156178e+03
4005.6357  2.603311e-02  2.176620e+03
4005.9733  3.735796e-02  2.209237e+03
4006.3109  5.353196e-02  2.254176e+03
4006.6485  6.724248e-02  2.292860e+03
4006.9861  5.708010e-02  2.270896e+03
4007.3237  3.183639e-02  2.210619e+03
4007.6613  2.040179e-02  2.185426e+03
4007.9989  1.750861e-02  2.181935e+03
4008.3365  3.456182e-02  2.229119e+03
4008.6741  3.599782e-02  2.236627e+03
4009.0117  2.279763e-02  2.206952e+03
4009.3493  3.691100e-02  2.246668e+03
4009.6869  5.882125e-02  2.306192e+03
4010.0245  6.731269e-02  2.331624e+03
4010.3621  8.356264e-02  2.376766e+03
4010.6997 -1.155666e-01  1.874727e+03
4011.0373 -1.320195e-01  1.836782e+03
4011.3749  1.648092e-02  2.217907e+03
4011.7125  6.054438e-02  2.333702e+03
4012.0501  5.697484e-02  2.328481e+03
4012.3877  2.601314e-02  2.253666e+03
4012.7253  2.536696e-03  2.197865e+03
4013.0629  1.460718e-02  2.232367e+03
4013.4005  3.421324e-02  2.286011e+03
4013.7381  2.871362e-02  2.275868e+03
4014.0758  1.622040e-02  2.247952e+03
4014.4134  2.472451e-02  2.273377e+03
4014.7510  2.750606e-02  2.284257e+03
4015.0886  2.176573e-02  2.273482e+03
4015.4262  2.496214e-02  2.285405e+03
4015.7638  2.647553e-02  2.293046e+03
4016.1014  4.321472e-02  2.339363e+03
4016.4390  4.560061e-02  2.349207e+03
4016.7766  2.769158e-02  2.307485e+03
4017.1142  3.551668e-03  2.249925e+03
4017.4518  1.965258e-02  2.294591e+03
4017.7894  4.337467e-02  2.358611e+03
4018.1270  6.281026e-02  2.411733e+03
4018.4646  6.428185e-02  2.419208e+03
4018.8022  2.779494e-02  2.330239e+03
4019.1398  1.463192e-02  2.300517e+03
4019.4774  2.954850e-02  2.342122e+03
4019.8150  3.838717e-02  2.368277e+03
4020.1526  4.089854e-02  2.378348e+03
4020.4902  3.829395e-02  2.375411e+03
4020.8278  2.184049e-02  2.337281e+03
4021.1654  2.333887e-02  2.344747e+03
4021.5030  2.260806e-02  2.346539e+03
4021.8406  3.734726e-02  2.387623e+03
4022.1782  5.849608e-02  2.444979e+03
4022.5159  4.921748e-02  2.425021e+03
4022.8535  2.336858e-02  2.362955e+03
4023.1911  1.832742e-02  2.353740e+03
4023.5287 -4.368428e-03  2.299660e+03
4023.8663 -1.500109e-02  2.276215e+03
4024.2039 -7.310383e-03  2.299309e+03
4024.5415 -1.160723e-02  2.291935e+03
4024.8791 -2.001547e-02  2.274103e+03
4025.2167 -1.611209e-02  2.287536e+03
4025.5543  1.758387e-02  2.376646e+03
4025.8919  3.212376e-02  2.417075e+03
4026.2295  1.689998e-02  2.381875e+03
4026.5671  1.803114e-02  2.388211e+03
4026.9047  3.938093e-03  2.355856e+03
4027.2423 -6.593880e-03  2.332534e+03
4027.5799  2.837465e-03  2.359915e+03
4027.9175 -5.023330e-03  2.343350e+03
4028.2551 -1.110923e-02  2.331280e+03
4028.5927 -6.724376e-03  2.345797e+03
4028.9303 -3.135995e-03  2.358275e+03
4029.2679  6.733768e-03  2.386696e+03
4029.6055 -8.593824e-04  2.370737e+03
4029.9431  2.954912e-03  2.383744e+03
4030.2807  5.717607e-03  2.394064e+03
4030.6183 -2.755031e-03  2.375824e+03
4030.9559 -1.323794e-02  2.352462e+03
4031.2936 -2.624675e-02  2.322667e+03
4031.6312 -4.144266e-02  2.287300e+03
4031.9688 -2.826649e-02  2.323997e+03
4032.3064 -2.066164e-02  2.346523e+03
4032.6440 -8.222279e-03  2.381316e+03
4032.9816  8.071320e-03  2.425885e+03
4033.3192 -1.195905e-02  2.378155e+03
4033.6568 -3.005390e-02  2.335325e+03
4033.9944 -2.865438e-02  2.342006e+03
4034.3320 -9.435068e-03  2.393942e+03
4034.6696  6.528351e-03  2.437589e+03
4035.0072  1.609965e-02  2.464980e+03
4035.3448  2.322915e-02  2.486152e+03
4035.6824  1.917716e-02  2.478899e+03
4036.0200  2.186248e-02  2.488746e+03
4036.3576  1.064995e-02  2.463268e+03
4036.6952  6.998132e-03  2.456981e+03
4037.0328  2.309849e-03  2.448044e+03
4037.3704  1.421897e-02  2.481257e+03
4037.7080  1.326623e-02  2.481777e+03
4038.0456 -1.617080e-03  2.446888e+03
4038.3832 -5.853622e-03  2.439031e+03
4038.7208 -3.056769e-03  2.449025e+03
4039.0584  3.291624e-02  2.543288e+03
4039.3960  3.290636e-02  2.546117e+03
4039.7337  1.627692e-02  2.506707e+03
4040.0713  1.794653e-02  2.513770e+03
4040.4089 -1.040202e-03  2.468336e+03
4040.7465  7.509593e-04  2.475673e+03
4041.0841  1.831542e-02  2.523066e+03
4041.4217  1.071826e-02  2.506517e+03
4041.7593  2.697881e-02  2.550563e+03
4042.0969  3.155554e-02  2.564909e+03
4042.4345  3.634403e-02  2.579776e+03
4042.7721  1.777229e-02  2.535278e+03
4043.1097  1.806439e-02  2.538688e+03
4043.4473  3.265594e-02  2.578409e+03
4043.7849  4.074606e-02  2.601596e+03
4044.1225  2.588009e-02  2.566446e+03
4044.4601  1.670371e-02  2.545733e+03
4044.7977  1.534943e-02  2.544876e+03
4045.1353  6.230077e-04  2.510031e+03
4045.4729 -1.198402e-02  2.480553e+03
4045.8105 -4.928715e-03  2.501012e+03
4046.1481 -1.281116e-02  2.483504e+03
4046.4857  1.363471e-04  2.518900e+03
4046.8233  1.252411e-02  2.552857e+03
4047.1609 -3.266330e-03  2.515210e+03
4047.4985  1.126822e-02  2.554589e+03
4047.8361  3.559700e-02  2.618835e+03
4048.1738  1.007373e-02  2.556414e+03
4048.5114 -1.389848e-02  2.497918e+03
4048.8490 -1.621829e-02  2.494415e+03
4049.1866 -3.334270e-02  2.453284e+03
4049.5242 -3.080441e-02  2.462092e+03
4049.8618 -1.971641e-02  2.492606e+03
4050.1994 -6.672225e-03  2.528074e+03
4050.5370  1.075236e-02  2.574656e+03
4050.8746  7.270589e-03  2.568109e+03
4051.2122  7.387845e-03  2.570691e+03
4051.5498  4.252974e-03  2.564997e+03
4051.8874 -1.394134e-02  2.521028e+03
4052.2250 -7.009207e-03  2.540880e+03
4052.5626 -2.006960e-03  2.555814e+03
4052.9002 -1.776553e-03  2.558612e+03
4053.2378  1.137166e-02  2.594213e+03
4053.5754  1.105144e-02  2.595584e+03
4053.9130  2.791250e-03  2.576769e+03
4054.2506 -1.670245e-02  2.529401e+03
4054.5882 -3.518789e-02  2.484582e+03
4054.9258 -2.399241e-02  2.515155e+03
4055.2634 -9.789195e-03  2.553355e+03
4055.6010 -4.944478e-03  2.567768e+03
4055.9386 -1.350039e-02  2.548123e+03
4056.2762 -2.503124e-02  2.520907e+03
4056.6138 -2.860222e-02  2.513901e+03
4056.9515 -3.060215e-03  2.580845e+03
4057.2891  2.675877e-02  2.658644e+03
4057.6267  2.208429e-03  2.598303e+03
4057.9643  6.127107e-04  2.596267e+03
4058.3019  1.459334e-02  2.633792e+03
4058.6395 -1.746207e-03  2.594276e+03
4058.9771 -7.483194e-03  2.581686e+03
4059.3147  4.909848e-03  2.615144e+03
4059.6523  2.166922e-03  2.610138e+03
4059.9899 -1.430650e-03  2.602950e+03
4060.3275  2.920048e-02  2.682711e+03
4060.6651  1.690697e-02  2.653410e+03
4061.0027  2.446164e-02  2.674524e+03
4061.3403  2.070417e-02  2.666889e+03
4061.6779  5.609304e-03  2.630441e+03
4062.0155  1.573521e-02  2.658059e+03
4062.3531  1.660235e-02  2.662145e+03
4062.6907  2.146045e-02  2.676361e+03
4063.0283  2.155364e-02  2.678463e+03
4063.3659  4.454849e-03  2.636879e+03
4063.7035  3.828471e-04  2.628382e+03
4064.0411 -1.507867e-03  2.625418e+03
4064.3787 -2.295270e-02  2.572769e+03
4064.7163 -1.967896e-02  2.582910e+03
4065.0539 -9.438793e-03  2.610742e+03
4065.3916  1.414842e-02  2.672475e+03
4065.7292  1.456799e-02  2.675343e+03
4066.0668  1.331511e-02  2.673955e+03
4066.4044  1.449585e-02  2.678743e+03
4066.7420  3.489662e-02  2.732354e+03
4067.0796  3.997415e-02  2.747029e+03
4067.4172  3.364445e-02  2.732718e+03
4067.7548  8.482492e-02  2.864508e+03
4068.0924  6.846892e-02  2.824713e+03
4068.4300  6.501465e-02  2.817690e+03
4068.7676  2.697370e-02  2.722793e+03
4069.1052 -2.113079e-02  2.602324e+03
4069.4428 -1.816433e-02  2.611599e+03
4069.7804  5.856820e-04  2.660967e+03
4070.1180  2.990824e-03  2.668807e+03
4070.4556 -7.087486e-03  2.644928e+03
4070.7932 -5.875584e-03  2.649728e+03
4071.1308 -1.615489e-03  2.662269e+03
4071.4684  6.269103e-03  2.684014e+03
4071.8060  5.098852e-03  2.682753e+03
4072.1436 -1.132628e-02  2.642732e+03
4072.4812 -2.273895e-02  2.615444e+03
4072.8188 -1.808435e-02  2.628972e+03
4073.1564 -5.927656e-03  2.661558e+03
4073.4940  1.119714e-03  2.681161e+03
4073.8316  5.644246e-03  2.694354e+03
4074.1693  3.036762e-02  2.758860e+03
4074.5069  6.027109e-02  2.836526e+03
4074.8445  5.137672e-02  2.815623e+03
4075.1821  9.233856e-03  2.710250e+03
4075.5197  3.643616e-03  2.697739e+03
4075.8573  2.633560e-03  2.696865e+03
4076.1949 -2.174820e-02  2.636613e+03
4076.5325 -3.590459e-02  2.602340e+03
4076.8701 -3.106494e-02  2.616327e+03
4077.2077 -2.312584e-02  2.638189e+03
4077.5453 -3.138087e-02  2.618909e+03
4077.8829 -3.300273e-02  2.616483e+03
4078.2205 -2.054593e-02  2.649825e+03
4078.5581 -1.347981e-02  2.669473e+03
4078.8957 -3.575210e-03  2.696334e+03
4079.2333 -9.247005e-04  2.704768e+03
4079.5709  4.832522e-03  2.721096e+03
4079.9085 -1.327485e-02  2.676798e+03
4080.2461 -2.321555e-02  2.653250e+03
4080.5837 -2.655615e-02  2.646472e+03
4080.9213 -7.165471e-03  2.697447e+03
4081.2589 -8.120037e-03  2.696738e+03
4081.5965 -1.987751e-02  2.668586e+03
4081.9341 -4.500706e-02  2.606466e+03
4082.2717 -3.401740e-02  2.636111e+03
4082.6094 -1.111479e-02  2.696026e+03
4082.9470 -1.918129e-02  2.677267e+03
4083.2846 -3.101078e-02  2.648953e+03
4083.6222 -3.686037e-02  2.635835e+03
4083.9598 -6.014131e-02  2.578437e+03
4084.2974 -7.803256e-02  2.534736e+03
4084.6350 -4.542459e-02  2.619336e+03
4084.9726 -4.425151e-02  2.624080e+03
4085.3102 -3.562756e-02  2.647759e+03
4085.6478 -6.704839e-03  2.723013e+03
4085.9854 -8.451720e-03  2.720356e+03
4086.3230 -2.064775e-02  2.691159e+03
4086.6606 -7.450347e-02  2.556130e+03
4086.9982 -8.612994e-02  2.528393e+03
4087.3358 -1.034390e-01  2.486225e+03
4087.6734 -9.854975e-02  2.500460e+03
4088.0110 -9.397867e-02  2.513895e+03
4088.3486 -9.148254e-02  2.522064e+03
4088.6862 -9.895097e-02  2.504927e+03
4089.0238 -1.143983e-01  2.467526e+03
4089.3614 -1.127807e-01  2.473487e+03
4089.6990 -1.266403e-01  2.440135e+03
4090.0366 -1.355804e-01  2.419290e+03
4090.3742 -1.268874e-01  2.443251e+03
4090.7118 -1.350535e-01  2.424390e+03
4091.0494 -1.379007e-01  2.419050e+03
4091.3871 -1.515249e-01  2.386339e+03
4091.7247 -1.639072e-01  2.356793e+03
4092.0623 -1.700978e-01  2.342986e+03
4092.3999 -1.905854e-01  2.292867e+03
4092.7375 -2.248418e-01  2.207777e+03
4093.0751 -2.438369e-01  2.161468e+03
4093.4127 -2.282942e-01  2.202914e+03
4093.7503 -2.314351e-01  2.196904e+03
4094.0879 -2.374872e-01  2.183508e+03
4094.4255 -2.504420e-01  2.152585e+03
4094.7631 -2.669728e-01  2.112588e+03
4095.1007 -2.914837e-01  2.052328e+03
4095.4383 -3.211217e-01  1.979053e+03
4095.7759 -3.370195e-01  1.940696e+03
4096.1135 -3.467072e-01  1.918128e+03
4096.4511 -3.648969e-01  1.873971e+03
4096.7887 -3.965490e-01  1.795623e+03
4097.1263 -4.331546e-01  1.704703e+03
4097.4639 -4.587865e-01  1.641672e+03
4097.8015 -4.832987e-01  1.581499e+03
4098.1391 -5.001330e-01  1.540843e+03
4098.4767 -5.107125e-01  1.516089e+03
4098.8143 -5.022470e-01  1.539732e+03
4099.1519 -5.235755e-01  1.487695e+03
4099.4895 -5.492415e-01  1.424650e+03
4099.8272 -5.873660e-01  1.329966e+03
4100.1648 -6.112149e-01  1.271563e+03
4100.5024 -6.493993e-01  1.176752e+03
4100.8400 -6.780395e-01  1.106201e+03
4101.1776 -6.932055e-01  1.069895e+03
4101.5152 -7.366768e-01  9.616908e+02
4101.8528 -7.570500e-01  9.121813e+02
4102.1904 -7.500845e-01  9.321398e+02
4102.5280 -7.357833e-01  9.707482e+02
4102.8656 -7.137076e-01  1.029121e+03
4103.2032 -6.959661e-01  1.076497e+03
4103.5408 -6.798229e-01  1.119825e+03
4103.8784 -6.673973e-01  1.153722e+03
4104.2160 -6.371822e-01  1.232827e+03
4104.5536 -6.014184e-01  1.326043e+03
4104.8912 -5.846716e-01  1.370959e+03
4105.2288 -5.697735e-01  1.411192e+03
4105.5664 -5.533562e-01  1.455298e+03
4105.9040 -5.473352e-01  1.473007e+03
4106.2416 -5.310624e-01  1.516774e+03
4106.5792 -4.992779e-01  1.599963e+03
4106.9168 -4.661146e-01  1.686669e+03
4107.2544 -4.469675e-01  1.737781e+03
4107.5920 -4.181029e-01  1.813595e+03
4107.9296 -3.805648e-01  1.911458e+03
4108.2672 -3.628449e-01  1.958987e+03
4108.6049 -3.517543e-01  1.989688e+03
4108.9425 -3.321178e-01  2.042114e+03
4109.2801 -3.275834e-01  2.056187e+03
4109.6177 -3.311862e-01  2.049602e+03
4109.9553 -3.125713e-01  2.099476e+03
4110.2929 -2.929591e-01  2.151899e+03
4110.6305 -2.888998e-01  2.164823e+03
4110.9681 -2.768851e-01  2.197973e+03
4111.3057 -2.521884e-01  2.263356e+03
4111.6433 -2.524934e-01  2.265236e+03
4111.9809 -2.398254e-01  2.300089e+03
4112.3185 -2.252604e-01  2.339776e+03
4112.6561 -2.098317e-01  2.381672e+03
4112.9937 -1.793184e-01  2.461906e+03
4113.3313 -1.722902e-01  2.482489e+03
4113.6689 -1.817753e-01  2.461134e+03
4114.0065 -1.611869e-01  2.516197e+03
4114.3441 -1.499563e-01  2.547501e+03
4114.6817 -1.660166e-01  2.509485e+03
4115.0193 -1.556332e-01  2.538666e+03
4115.3569 -1.458214e-01  2.566408e+03
4115.6945 -1.293127e-01  2.611179e+03
4116.0321 -8.906111e-02  2.716284e+03
4116.3697 -5.974083e-02  2.793633e+03
4116.7073 -4.823828e-02  2.825729e+03
4117.0450 -3.912572e-02  2.851768e+03
4117.3826 -3.794096e-02  2.857680e+03
4117.7202 -3.433029e-02  2.869770e+03
4118.0578 -2.253525e-02  2.902667e+03
4118.3954 -1.688843e-02  2.919958e+03
4118.7330 -1.312911e-02  2.932469e+03
4119.0706 -9.594802e-03  2.944422e+03
4119.4082 -4.461056e-03  2.960453e+03
4119.7458 -3.259542e-03  2.966508e+03
4120.0834  1.427272e-04  2.978168e+03
4120.4210 -7.794901e-03  2.961033e+03
4120.7586 -2.077540e-02  2.931100e+03
4121.0962  8.209173e-03  3.007795e+03
4121.4338  4.699920e-02  3.109415e+03
4121.7714  7.508991e-02  3.183867e+03
4122.1090  3.947546e-02  3.096487e+03
4122.4466 -1.422943e-02  2.963161e+03
4122.7842 -2.162204e-02  2.947508e+03
4123.1218 -4.320220e-04  3.004483e+03
4123.4594  1.131597e-02  3.037483e+03
4123.7970  5.477763e-03  3.025819e+03
4124.1346 -1.005640e-02  2.989535e+03
4124.4722 -2.365239e-02  2.958188e+03
4124.8098 -1.663318e-02  2.979229e+03
4125.1474  1.572642e-03  3.028702e+03
4125.4850  1.983532e-02  3.078333e+03
4125.8227  1.887209e-02  3.079133e+03
4126.1603  2.228645e-02  3.091066e+03
4126.4979  9.209626e-03  3.061116e+03
4126.8355  5.551552e-04  3.042414e+03
4127.1731  6.076626e-03  3.059739e+03
4127.5107 -3.767376e-03  3.038040e+03
4127.8483 -1.117323e-02  3.022547e+03
4128.1859 -2.194714e-02  2.998510e+03
4128.5235 -4.987968e-02  2.930893e+03
4128.8611 -5.849522e-02  2.912364e+03
4129.1987 -4.408867e-02  2.952334e+03
4129.5363 -3.339507e-02  2.982884e+03
4129.8739 -3.891011e-02  2.972267e+03
4130.2115 -2.445450e-02  3.012398e+03
4130.5491 -8.705110e-03  3.055827e+03
4130.8867 -3.288521e-02  2.997824e+03
4131.2243 -6.229735e-02  2.926541e+03
4131.5619 -6.959711e-02  2.911447e+03
4131.8995 -4.448266e-02  2.978712e+03
4132.2371 -1.111920e-02  3.066946e+03
4132.5747  6.366025e-03  3.114851e+03
4132.9123  1.771652e-02  3.147181e+03
4133.2499  3.732704e-02  3.200507e+03
4133.5875  5.802392e-02  3.256602e+03
4133.9251  5.659411e-02  3.256494e+03
4134.2628  3.299075e-02  3.200064e+03
4134.6004  3.989430e-02  3.221147e+03
4134.9380  3.947347e-02  3.223632e+03
4135.2756  5.350466e-02  3.262843e+03
4135.6132  6.587800e-02  3.297851e+03
4135.9508  3.193752e-02  3.215207e+03
4136.2884  6.842510e-03  3.155043e+03
4136.6260  1.465863e-02  3.178501e+03
4136.9636  3.359536e-02  3.230221e+03
4137.3012  3.442017e-02  3.235935e+03
4137.6388  3.265291e-02  3.235072e+03
4137.9764  4.656342e-02  3.274047e+03
4138.3140  9.325696e-02  3.396318e+03
4138.6516  7.274356e-02  3.347854e+03
4138.9892  4.182406e-02  3.272962e+03
4139.3268  4.959647e-02  3.296375e+03
4139.6644  4.362302e-02  3.284875e+03
4140.0020  5.242149e-02  3.310910e+03
4140.3396  5.616003e-02  3.324098e+03
4140.6772  5.858490e-02  3.333955e+03
4141.0148  7.877640e-02  3.388957e+03
4141.3524  7.690796e-02  3.387920e+03
4141.6900  4.758617e-02  3.317145e+03
4142.0276  6.174364e-02  3.356836e+03
4142.3652  8.011580e-02  3.407241e+03
4142.7029  9.036412e-02  3.437014e+03
4143.0405  8.725308e-02  3.432852e+03
4143.3781  4.806106e-02  3.337031e+03
4143.7157  4.231640e-02  3.326190e+03
4144.0533  4.686410e-02  3.341502e+03
4144.3909  4.335393e-02  3.336349e+03
4144.7285  3.011226e-02  3.306477e+03
4145.0661  7.497636e-02  3.424230e+03
4145.4037  7.236587e-02  3.421377e+03
4145.7413  5.992595e-02  3.393556e+03
4146.0789  7.114640e-02  3.425850e+03
4146.4165  5.049204e-02  3.377168e+03
4146.7541  3.566166e-02  3.343287e+03
4147.0917  4.492835e-02  3.370629e+03
4147.4293  6.736681e-02  3.431438e+03
4147.7669  7.353339e-02  3.450911e+03
4148.1045  6.322432e-02  3.428531e+03
4148.4421  4.527197e-02  3.386735e+03
4148.7797  2.505576e-02  3.339191e+03
4149.1173  7.982329e-02  3.482149e+03
4149.4549  1.199042e-01  3.587797e+03
4149.7925  4.334095e-02  3.397108e+03
4150.1301  8.948882e-03  3.313560e+03
4150.4677 -2.504553e-02  3.231023e+03
4150.8053 -4.617601e-02  3.181169e+03
4151.1429  4.863556e-03  3.314668e+03
4151.4806  5.902950e-02  3.456112e+03
4151.8182  3.508767e-02  3.399120e+03
4152.1558  3.292967e-02  3.397472e+03
4152.4934  3.581513e-02  3.408638e+03
4152.8310  5.734325e-02  3.467167e+03
4153.1686  6.933981e-02  3.501481e+03
4153.5062  5.567303e-02  3.470597e+03
4153.8438  5.414339e-02  3.470548e+03
4154.1814  6.003275e-02  3.489346e+03
4154.5190  7.004108e-02  3.518609e+03
4154.8566  7.230210e-02  3.528189e+03
4155.1942  5.296921e-02  3.482909e+03
4155.5318  4.467352e-02  3.465667e+03
4155.8694  5.576620e-02  3.497682e+03
4156.2070  4.593866e-02  3.476547e+03
4156.5446  4.261357e-02  3.471930e+03
4156.8822  5.758981e-02  3.513807e+03
4157.2198  6.553231e-02  3.537812e+03
4157.5574  6.207165e-02  3.532845e+03
4157.8950  7.383107e-02  3.566543e+03
4158.2326  6.748794e-02  3.554249e+03
4158.5702  5.788291e-02  3.533665e+03
4158.9078  4.635892e-02  3.508203e+03
4159.2454  6.951888e-02  3.570854e+03
4159.5830  5.809280e-02  3.545635e+03
4159.9207  2.435246e-02  3.463722e+03
4160.2583  3.494086e-02  3.494425e+03
4160.5959  2.622561e-02  3.476082e+03
4160.9335  2.224344e-02  3.469760e+03
4161.2711  1.854108e-02  3.464145e+03
4161.6087  2.349390e-02  3.480514e+03
4161.9463  3.997646e-02  3.526171e+03
4162.2839  3.586513e-02  3.519503e+03
4162.6215  1.596305e-02  3.472714e+03
4162.9591  1.571244e-02  3.475845e+03
4163.2967  1.643367e-02  3.481440e+03
4163.6343  3.965170e-02  3.544184e+03
4163.9719  4.588677e-02  3.563776e+03
4164.3095  2.360338e-02  3.510910e+03
4164.6471  2.881264e-02  3.527885e+03
4164.9847  4.861059e-02  3.581917e+03
4165.3223  4.506620e-02  3.576640e+03
4165.6599  3.492500e-02  3.554598e+03
4165.9975  1.681122e-02  3.512294e+03
4166.3351  1.801096e-02  3.519050e+03
4166.6727  3.997363e-02  3.578549e+03
4167.0103  4.919882e-02  3.605680e+03
4167.3479  3.314456e-02  3.568581e+03
4167.6855  2.643605e-02  3.555217e+03
4168.0231  5.493330e-02  3.631288e+03
4168.3607  5.228135e-02  3.628215e+03
4168.6984  5.301526e-02  3.633736e+03
4169.0360  7.469978e-02  3.692475e+03
4169.3736  2.923693e-02  3.580615e+03
4169.7112  1.343830e-01  3.851374e+03
4170.0488  7.167166e-02  3.695677e+03
4170.3864  6.741148e-02  3.688468e+03
4170.7240  6.271901e-02  3.680152e+03
4171.0616  4.393398e-02  3.636024e+03
4171.3992  1.218091e-02  3.558941e+03
4171.7368 -2.033573e-02  3.479909e+03
4172.0744 -4.092729e-02  3.431164e+03
4172.4120 -2.099199e-02  3.485369e+03
4172.7496 -1.118366e-02  3.513836e+03
4173.0872 -3.932545e-02  3.445880e+03
4173.4248 -4.347973e-02  3.438854e+03
4173.7624 -3.947633e-02  3.452544e+03
4174.1000 -2.973178e-02  3.480808e+03
4174.4376 -2.655030e-02  3.492388e+03
4174.7752 -3.829313e-02  3.466042e+03
4175.1128 -3.513121e-02  3.477551e+03
4175.4504 -2.036720e-02  3.518524e+03
4175.7880 -8.722842e-03  3.551561e+03
4176.1256  8.810223e-03  3.599546e+03
4176.4632  1.943027e-02  3.629958e+03
4176.8008  1.239573e-02  3.615506e+03
4177.1385 -9.809118e-03  3.562501e+03
4177.4761 -1.187709e-02  3.560643e+03
4177.8137 -3.130305e-03  3.586249e+03
4178.1513 -4.089177e-02  3.493686e+03
4178.4889 -6.991054e-02  3.423322e+03
4178.8265 -6.764324e-02  3.432430e+03
4179.1641 -7.219551e-02  3.424199e+03
4179.5017 -4.836378e-02  3.488067e+03
4179.8393 -2.224047e-02  3.557744e+03
4180.1769 -3.929737e-02  3.517707e+03
4180.5145 -6.517940e-02  3.455236e+03
4180.8521 -6.027719e-02  3.470961e+03
4181.1897 -2.391156e-02  3.566606e+03
4181.5273 -1.836035e-02  3.583954e+03
4181.8649 -7.644165e-03  3.614409e+03
4182.2025  2.385332e-02  3.697647e+03
4182.5401  3.475145e-02  3.728538e+03
4182.8777  1.911677e-02  3.692007e+03
4183.2153  2.658641e-02  3.714160e+03
4183.5529  1.780235e-02  3.695005e+03
4183.8905  1.457233e-02  3.689947e+03
4184.2281  2.180410e-02  3.711454e+03
4184.5657  1.879763e-02  3.706935e+03
4184.9033 -1.594503e-03  3.658233e+03
4185.2409 -1.054184e-02  3.638593e+03
4185.5785  1.226834e-02  3.699619e+03
4185.9162  2.549199e-02  3.736276e+03
4186.2538  3.510004e-03  3.683477e+03
4186.5914 -2.247853e-02  3.620484e+03
4186.9290 -1.948614e-02  3.631103e+03
4187.2666 -1.064175e-02  3.656575e+03
4187.6042 -1.169317e-02  3.656891e+03
4187.9418 -2.457519e-02  3.627135e+03
4188.2794 -4.400626e-02  3.580727e+03
4188.6170 -2.223145e-02  3.638988e+03
4188.9546 -3.546859e-03  3.689383e+03
4189.2922  3.381614e-03  3.709896e+03
4189.6298  9.002333e-04  3.706487e+03
4189.9674  3.208161e-03  3.715229e+03
4190.3050  2.162537e-02  3.764883e+03
4190.6426  1.972156e-02  3.762895e+03
4190.9802  3.972703e-03  3.725716e+03
4191.3178 -7.591589e-03  3.699153e+03
4191.6554 -1.636231e-02  3.679672e+03
4191.9930 -1.300380e-02  3.690989e+03
4192.3306 -1.415194e-02  3.690841e+03
4192.6682  1.123889e-03  3.732402e+03
4193.0058  3.495844e-02  3.821097e+03
4193.3434  3.853379e-02  3.832900e+03
4193.6810  3.657164e-02  3.830620e+03
4194.0186  4.849204e-02  3.863592e+03
4194.3563  4.336052e-02  3.853227e+03
4194.6939  3.942492e-02  3.845883e+03
4195.0315  4.889577e-02  3.872583e+03
4195.3691  1.090638e-02  3.778692e+03
4195.7067 -1.938854e-03  3.748664e+03
4196.0443  3.177962e-02  3.836917e+03
4196.3819  2.688189e-02  3.827047e+03
4196.7195 -5.685128e-03  3.746866e+03
4197.0571  1.569560e-03  3.767836e+03
4197.3947  7.823101e-03  3.786247e+03
4197.7323  1.638415e-03  3.773041e+03
4198.0699  1.236121e-02  3.802773e+03
4198.4075  7.095846e-03  3.791869e+03
4198.7451 -9.618013e-03  3.751864e+03
4199.0827 -4.976232e-02  3.652315e+03
4199.4203 -6.223673e-02  3.623047e+03
4199.7579 -4.537586e-02  3.668289e+03
4200.0955 -3.223258e-02  3.704070e+03
4200.4331 -3.184162e-02  3.707436e+03
4200.7707 -1.145840e-02  3.761577e+03
4201.1083  2.680357e-03  3.799836e+03
4201.4459 -1.906695e-02  3.746909e+03
4201.7835 -4.635414e-02  3.679891e+03
4202.1211 -6.065219e-02  3.645855e+03
4202.4587 -3.992749e-02  3.700779e+03
4202.7963 -2.337847e-02  3.745078e+03
4203.1340 -9.645643e-03  3.782206e+03
4203.4716  6.048508e-03  3.824300e+03
4203.8092  3.399831e-03  3.819776e+03
4204.1468 -1.954025e-02  3.763685e+03
4204.4844 -2.232328e-02  3.758786e+03
4204.8220 -1.335495e-02  3.783726e+03
4205.1596 -2.234296e-02  3.763030e+03
4205.4972 -3.750380e-02  3.726635e+03
4205.8348 -6.245114e-02  3.665361e+03
4206.1724 -7.142499e-02  3.644651e+03
4206.5100 -7.034374e-02  3.649470e+03
4206.8476 -4.390007e-02  3.718707e+03
4207.1852 -4.021289e-02  3.730114e+03
4207.5228 -2.400035e-02  3.773325e+03
4207.8604 -1.817942e-02  3.790119e+03
4208.1980 -1.680039e-02  3.795612e+03
4208.5356 -1.402544e-02  3.804635e+03
4208.8732 -1.500724e-02  3.804098e+03
4209.2108 -1.498407e-02  3.806098e+03
4209.5484 -1.495421e-02  3.808098e+03
4209.8860 -1.491816e-02  3.810098e+03
4210.2236 -1.487525e-02  3.812099e+03
4210.5612 -1.482668e-02  3.814098e+03
4210.8988 -1.477110e-02  3.816099e+03
4211.2364 -1.470950e-02  3.818099e+03
4211.5741 -1.464170e-02  3.820099e+03
4211.9117 -1.456706e-02  3.822101e+03
4212.2493 -1.448666e-02  3.824101e+03
4212.5869 -1.439975e-02  3.826102e+03
4212.9245 -1.430654e-02  3.828103e+03
4213.2621 -1.420763e-02  3.830103e+03
4213.5997 -1.410181e-02  3.832105e+03
4213.9373 -1.399025e-02  3.834106e+03
4214.2749 -1.387239e-02  3.836107e+03
4214.6125 -1.374875e-02  3.838108e+03
4214.9501 -1.361868e-02  3.840110e+03
4215.2877 -1.348288e-02  3.842111e+03
4215.6253 -1.334071e-02  3.844113e+03
4215.9629 -1.319258e-02  3.846115e+03
4216.3005 -1.303871e-02  3.848116e+03
4216.6381 -1.287856e-02  3.850119e+03
4216.9757 -1.271273e-02  3.852121e+03
4217.3133 -1.254135e-02  3.854122e+03
4217.6509 -1.236359e-02  3.856125e+03
4217.9885 -1.218024e-02  3.858127e+03
4218.3261 -1.199059e-02  3.860130e+03
4218.6637 -1.179619e-02  3.862132e+03
4219.0013 -1.159554e-02  3.864134e+03
4219.3389 -1.138897e-02  3.866138e+03
4219.6765 -1.117737e-02  3.868140e+03
4220.0142 -1.095964e-02  3.870143e+03
4220.3518 -1.073676e-02  3.872146e+03
4220.6894 -1.050801e-02  3.874149e+03
4221.0270 -1.027380e-02  3.876152e+03
4221.3646 -1.003447e-02  3.878155e+03
4221.7022 -9.789578e-03  3.880158e+03
4222.0398 -9.539251e-03  3.882162e+03
4222.3774 -9.283341e-03  3.884166e+03
4222.7150 -9.022367e-03  3.886169e+03
4223.0526 -8.756277e-03  3.888173e+03
4223.3902 -8.484918e-03  3.890177e+03
4223.7278 -8.207947e-03  3.892181e+03
4224.0654 -7.926273e-03  3.894185e+03
4224.4030 -7.639554e-03  3.896189e+03
4224.7406 -7.347834e-03  3.898193e+03
4225.0782 -7.051155e-03  3.900197e+03
4225.4158 -6.748889e-03  3.902203e+03
4225.7534 -6.442428e-03  3.904207e+03
4226.0910 -6.131046e-03  3.906211e+03
4226.4286 -5.814695e-03  3.908215e+03
4226.7662 -5.493419e-03  3.910220e+03
4227.1038 -5.140359e-03  3.912294e+03
4227.4414 -2.492742e-03  3.920186e+03
4227.7790 -1.036912e-02  3.901329e+03
4228.1166 -1.756653e-02  3.884186e+03
4228.4542 -1.448966e-02  3.893134e+03
4228.7919 -1.690399e-02  3.888119e+03
4229.1295 -9.791200e-03  3.907298e+03
4229.4671 -2.489170e-02  3.870031e+03
4229.8047 -3.088801e-02  3.855884e+03
4230.1423 -2.609384e-02  3.869139e+03
4230.4799 -2.256571e-02  3.879167e+03
4230.8175 -3.901746e-02  3.838425e+03
4231.1551 -4.244077e-02  3.830771e+03
4231.4927 -6.792960e-02  3.767049e+03
4231.8303 -4.861926e-02  3.817131e+03
4232.1679  2.454953e-02  4.004033e+03
4232.5055 -4.438736e-02  3.829899e+03
4232.8431 -1.085696e-01  3.667835e+03
4233.1807 -1.402588e-01  3.588312e+03
4233.5183 -1.136008e-01  3.657012e+03
4233.8559 -1.005295e-01  3.691186e+03
4234.1935 -7.789108e-02  3.749656e+03
4234.5311 -1.030711e-01  3.686632e+03
4234.8687 -9.926942e-02  3.697228e+03
4235.2063 -8.765458e-02  3.727665e+03
4235.5439 -6.051047e-02  3.797547e+03
4235.8815 -3.619741e-02  3.860227e+03
4236.2191 -5.534124e-02  3.812495e+03
4236.5567 -2.853638e-02  3.881490e+03
4236.8943 -4.129779e-02  3.849956e+03
4237.2320  5.590452e-03  3.969957e+03
4237.5696  7.169922e-02  4.138781e+03
4237.9072  1.038760e-02  3.983880e+03
4238.2448  3.842920e-03  3.968110e+03
4238.5824 -6.411743e-02  3.796303e+03
4238.9200 -4.951186e-02  3.834251e+03
4239.2576 -2.956381e-02  3.885764e+03
4239.5952 -4.825872e-02  3.839097e+03
4239.9328 -3.210412e-02  3.880960e+03
4240.2704 -1.010676e-02  3.937659e+03
4240.6080 -4.149893e-02  3.858714e+03
4240.9456 -4.134139e-02  3.859916e+03
4241.2832 -7.336940e-02  3.779343e+03
4241.6208 -7.671116e-02  3.771643e+03
4241.9584 -3.211128e-02  3.885734e+03
4242.2960 -2.584289e-02  3.902437e+03
4242.6336 -5.238260e-02  3.835784e+03
4242.9712 -1.717766e-02  3.925990e+03
4243.3088 -1.868887e-02  3.922912e+03
4243.6464 -6.411940e-02  3.808250e+03
4243.9840 -7.286979e-02  3.786771e+03
4244.3216 -2.517988e-02  3.908676e+03
4244.6592 -2.220746e-02  3.916969e+03
4244.9968 -3.509507e-02  3.884964e+03
4245.3344 -4.414394e-03  3.963643e+03
4245.6720 -1.390663e-02  3.940256e+03
4246.0097 -2.901561e-02  3.902595e+03
4246.3473  5.354799e-03  3.990635e+03
4246.6849 -2.130497e-02  3.923621e+03
4247.0225 -1.421296e-02  3.942352e+03
4247.3601 -5.165478e-02  3.847938e+03
4247.6977 -4.233693e-02  3.872317e+03
4248.0353  7.832047e-03  4.000476e+03
4248.3729  1.995573e-02  4.031977e+03
4248.7105 -2.795100e-03  3.974874e+03
4249.0481 -2.595609e-03  3.976075e+03
4249.3857 -4.164032e-02  3.877572e+03
4249.7233 -2.423721e-02  3.922474e+03
4250.0609  9.598196e-03  4.009121e+03
4250.3985 -1.848469e-02  3.938460e+03
4250.7361 -5.352600e-03  3.972505e+03
4251.0737 -4.537883e-02  3.871498e+03
4251.4113 -4.127835e-02  3.882594e+03
4251.7489 -3.357319e-02  3.902847e+03
4252.0865 -8.269661e-02  3.778723e+03
4252.4241 -7.019731e-02  3.811152e+03
4252.7617 -7.904833e-02  3.789340e+03
4253.0993 -4.811357e-02  3.868603e+03
4253.4369 -3.555422e-02  3.901183e+03
4253.7745 -2.950697e-03  3.984684e+03
4254.1121 -2.458519e-02  3.930392e+03
4254.4498 -5.475582e-02  3.854412e+03
4254.7874 -7.117070e-02  3.813379e+03
4255.1250 -4.638117e-02  3.877028e+03
4255.4626 -4.178038e-02  3.889386e+03
4255.8002 -3.721811e-02  3.901647e+03
4256.1378  2.329524e-03  4.002790e+03
4256.4754  7.463163e-03  4.016503e+03
4256.8130 -1.585236e-02  3.957941e+03
4257.1506  1.320649e-03  4.002242e+03
4257.4882  2.173670e-02  4.054783e+03
4257.8258  4.688555e-02  4.119349e+03
4258.1634 -6.576746e-03  3.984201e+03
4258.5010 -1.806919e-02  3.955681e+03
4258.8386 -2.091888e-02  3.949119e+03
4259.1762 -1.572897e-02  3.962984e+03
4259.5138 -3.798753e-02  3.907117e+03
4259.8514 -5.178704e-02  3.872742e+03
4260.1890  7.245742e-03  4.023403e+03
4260.5266 -7.291274e-02  3.820445e+03
4260.8642  2.197463e-02  4.062200e+03
4261.2018  1.070352e-02  4.034257e+03
4261.5394 -2.534889e-02  3.943360e+03
4261.8770 -9.892916e-03  3.983324e+03
4262.2146  2.239358e-03  4.014847e+03
4262.5522  5.577702e-03  4.024031e+03
4262.8898  1.356040e-02  4.045018e+03
4263.2275  1.388907e-02  4.046563e+03
4263.5651 -1.399898e-02  3.976425e+03
4263.9027 -3.552738e-03  4.003681e+03
4264.2403  4.035136e-02  4.115941e+03
4264.5779  4.698395e-02  4.133515e+03
4264.9155  6.036378e-03  4.030214e+03
4265.2531  1.947500e-02  4.065087e+03
4265.5907  2.936118e-02  4.090939e+03
4265.9283  2.834973e-02  4.089109e+03
4266.2659  9.619380e-03  4.042269e+03
4266.6035  5.576335e-02  4.160248e+03
4266.9411  6.825124e-02  4.192728e+03
4267.2787  1.776097e-02  4.065213e+03
4267.6163  3.209623e-02  4.102396e+03
4267.9539  2.646012e-02  4.088845e+03
4268.2915  3.732029e-02  4.117208e+03
4268.6291  3.395708e-02  4.109442e+03
4268.9667  1.533834e-02  4.062924e+03
4269.3043  2.681409e-02  4.092868e+03
4269.6419  3.404398e-02  4.112030e+03
4269.9795  3.090450e-02  4.104854e+03
4270.3171  1.395483e-02  4.062599e+03
4270.6547  3.352562e-02  4.113131e+03
4270.9923  1.084424e-02  4.056326e+03
4271.3299  2.939146e-02  4.104270e+03
4271.6676  3.527822e-02  4.120056e+03
4272.0052  2.306015e-02  4.089852e+03
4272.3428  2.438187e-02  4.094052e+03
4272.6804  4.021738e-02  4.135132e+03
4273.0180  3.802439e-03  4.043475e+03
4273.3556  4.461123e-02  4.148014e+03
4273.6932  3.402323e-02  4.121984e+03
4274.0308  5.827414e-02  4.184471e+03
4274.3684 -2.324190e-02  3.978259e+03
4274.7060  9.685534e-02  4.284262e+03
4275.0436 -2.790694e-03  4.032005e+03
4275.3812  2.949589e-02  4.114935e+03
4275.7188  4.856408e-02  4.164291e+03
4276.0564  7.544035e-02  4.233491e+03
4276.3940  4.547654e-02  4.158294e+03
4276.7316  4.215055e-02  4.150780e+03
4277.0692  8.250625e-02  4.254248e+03
4277.4068  7.687372e-02  4.240889e+03
4277.7444  1.014420e-02  4.072319e+03
4278.0820  3.477046e-02  4.135850e+03
4278.4196  1.979825e-03  4.053519e+03
4278.7572  1.533881e-02  4.088441e+03
4279.0948  5.859156e-02  4.199317e+03
4279.4324  3.085629e-02  4.129854e+03
4279.7700  1.482301e-02  4.090129e+03
4280.1076  2.913562e-02  4.127508e+03
4280.4453  4.194746e-02  4.161082e+03
4280.7829  4.313400e-02  4.165130e+03
4281.1205  4.240168e-02  4.164312e+03
4281.4581  3.537281e-02  4.147507e+03
4281.7957  4.846701e-02  4.181833e+03
4282.1333  5.131903e-02  4.190148e+03
4282.4709  5.634487e-02  4.203995e+03
4282.8085  2.793796e-02  4.132914e+03
4283.1461  1.922866e-02  4.111884e+03
4283.4837  1.159577e-02  4.093598e+03
4283.8213  2.114941e-02  4.118984e+03
4284.1589  5.623383e-02  4.209242e+03
4284.4965  2.518670e-02  4.131500e+03
4284.8341  3.022579e-02  4.145445e+03
4285.1717  4.097703e-02  4.173912e+03
4285.5093  3.469423e-02  4.159112e+03
4285.8469  1.543383e-02  4.111353e+03
4286.1845  5.766247e-02  4.219818e+03
4286.5221  7.040212e-02  4.253375e+03
4286.8597  8.051695e-02  4.280273e+03
4287.1973  7.269699e-02  4.261618e+03
4287.5349  5.169041e-02  4.209471e+03
4287.8725  4.140791e-02  4.184579e+03
4288.2101  7.060156e-02  4.259987e+03
4288.5477  6.450584e-02  4.245752e+03
4288.8854  1.219203e-01  4.392877e+03
4289.2230  5.532647e-02  4.224964e+03
4289.5606  3.872182e-02  4.184061e+03
4289.8982  7.595833e-02  4.279953e+03
4290.2358  3.358082e-02  4.173593e+03
4290.5734  3.270912e-02  4.172691e+03
4290.9110  2.273135e-02  4.148665e+03
4291.2486  5.736313e-02  4.237981e+03
4291.5862  2.847128e-02  4.165923e+03
4291.9238  2.609699e-02  4.161245e+03
4292.2614  2.995860e-02  4.172420e+03
4292.5990  6.598774e-02  4.265328e+03
4292.9366  1.412237e-02  4.134947e+03
4293.2742  1.281245e-02  4.133015e+03
4293.6118  3.673753e-02  4.195204e+03
4293.9494  4.640192e-02  4.221174e+03
4294.2870  3.956924e-02  4.205243e+03
4294.6246  5.358485e-02  4.242288e+03
4294.9622  6.798392e-02  4.280318e+03
4295.2998  4.239456e-02  4.216767e+03
4295.6374  8.409201e-02  4.324171e+03
4295.9750  1.244410e-01  4.428161e+03
4296.3126  9.635431e-02  4.358297e+03
4296.6502  5.816541e-02  4.262779e+03
4296.9878  3.994372e-02  4.217999e+03
4297.3255  4.776724e-02  4.239399e+03
4297.6631  8.434939e-02  4.333872e+03
4298.0007  4.747545e-02  4.241738e+03
4298.3383  5.401390e-02  4.259905e+03
4298.6759  5.008996e-02  4.251503e+03
4299.0135  6.899963e-02  4.301122e+03
4299.3511  6.273604e-02  4.286798e+03
4299.6887  3.062498e-02  4.206818e+03
4300.0263  5.761833e-02  4.277006e+03
4300.3639  3.795516e-02  4.228672e+03
4300.7015  2.944432e-02  4.208682e+03
4301.0391 -3.481754e-03  4.126674e+03
4301.3767 -2.736273e-02  4.067657e+03
4301.7143 -4.017709e-02  4.036766e+03
4302.0519  3.524389e-02  4.230051e+03
4302.3895  6.878500e-02  4.316950e+03
4302.7271  5.506998e-02  4.283803e+03
4303.0647  3.549239e-02  4.235772e+03
4303.4023  1.187796e-03  4.150338e+03
4303.7399  5.586635e-03  4.163243e+03
4304.0775  8.477515e-03  4.172327e+03
4304.4151  1.140915e-02  4.181525e+03
4304.7527  4.701852e-02  4.273753e+03
4305.0903  3.897967e-02  4.255102e+03
4305.4279  9.891994e-02  4.409165e+03
4305.7655  6.161340e-02  4.316179e+03
4306.1032  8.111423e-02  4.367525e+03
4306.4408  6.214443e-02  4.321146e+03
4306.7784  6.682844e-02  4.334870e+03
4307.1160  3.370434e-02  4.252552e+03
4307.4536  3.718095e-02  4.263230e+03
4307.7912  3.295388e-02  4.254348e+03
4308.1288  1.844174e-02  4.219346e+03
4308.4664  9.849174e-03  4.199393e+03
4308.8040 -1.361364e-02  4.141672e+03
4309.1416 -1.798858e-02  4.132456e+03
4309.4792  3.322447e-02  4.264473e+03
4309.8168  6.126906e-02  4.337640e+03
4310.1544  5.544241e-02  4.324766e+03
4310.4920  4.711049e-02  4.305537e+03
4310.8296  6.177694e-02  4.344747e+03
4311.1672  9.005646e-02  4.418552e+03
4311.5048  5.633290e-02  4.334845e+03
4311.8424  2.678755e-02  4.261764e+03
4312.1800  5.697020e-02  4.340434e+03
4312.5176  9.926936e-02  4.449896e+03
4312.8552  4.462201e-02  4.313072e+03
4313.1928  2.137765e-02  4.256038e+03
4313.5304  1.763649e-03  4.208237e+03
4313.8680 -1.167532e-02  4.176134e+03
4314.2056 -3.000438e-03  4.200222e+03
4314.5433  9.185683e-03  4.233240e+03
4314.8809 -3.769954e-02  4.116195e+03
4315.2185  2.566091e-03  4.220569e+03
4315.5561 -9.677827e-03  4.191551e+03
4315.8937  2.423982e-03  4.224393e+03
4316.2313  7.252638e-03  4.238767e+03
4316.5689  1.618827e-02  4.263584e+03
4316.9065  1.532015e-02  4.263504e+03
4317.2441 -1.981842e-02  4.176368e+03
4317.5817  2.935105e-02  4.303429e+03
4317.9193  1.941035e-02  4.280328e+03
4318.2569  6.290756e-04  4.234775e+03
4318.5945  1.070512e-02  4.262545e+03
4318.9321 -4.159034e-03  4.226963e+03
4319.2697 -1.769384e-02  4.194767e+03
4319.6073 -5.138599e-02  4.111369e+03
4319.9449  4.189586e-05  4.244230e+03
4320.2825 -3.987761e-02  4.145029e+03
4320.6201  1.656411e-02  4.290646e+03
4320.9577 -9.235080e-03  4.227336e+03
4321.2953 -1.241083e-02  4.221510e+03
4321.6329 -3.965784e-02  4.154538e+03
4321.9705 -5.148736e-02  4.126744e+03
4322.3081 -2.106939e-02  4.206289e+03
4322.6457 -3.764619e-02  4.166451e+03
4322.9833 -2.975242e-02  4.188789e+03
4323.3210 -1.983728e-02  4.216271e+03
4323.6586 -1.860586e-02  4.221700e+03
4323.9962 -4.182703e-02  4.165014e+03
4324.3338 -5.013848e-02  4.146214e+03
4324.6714 -5.418516e-02  4.138258e+03
4325.0090 -9.027434e-02  4.048904e+03
4325.3466 -6.014533e-02  4.127788e+03
4325.6842 -1.014073e-01  4.025307e+03
4326.0218 -1.162993e-01  3.989829e+03
4326.3594 -1.746976e-01  3.843828e+03
4326.6970 -1.649727e-01  3.870905e+03
4327.0346 -2.033583e-01  3.775762e+03
4327.3722 -2.019053e-01  3.781838e+03
4327.7098 -1.998932e-01  3.789342e+03
4328.0474 -1.868675e-01  3.824834e+03
4328.3850 -1.996343e-01  3.794806e+03
4328.7226 -1.556305e-01  3.909013e+03
4329.0602 -1.847459e-01  3.837464e+03
4329.3978 -2.015814e-01  3.797120e+03
4329.7354 -2.000628e-01  3.803412e+03
4330.0730 -2.193205e-01  3.756928e+03
4330.4106 -2.745892e-01  3.618963e+03
4330.7482 -2.928695e-01  3.574975e+03
4331.0858 -3.236362e-01  3.499271e+03
4331.4234 -3.307893e-01  3.483565e+03
4331.7611 -3.604200e-01  3.410760e+03
4332.0987 -3.619391e-01  3.409380e+03
4332.4363 -3.536589e-01  3.432901e+03
4332.7739 -3.708915e-01  3.391613e+03
4333.1115 -4.355757e-01  3.229777e+03
4333.4491 -4.718014e-01  3.140248e+03
4333.7867 -4.693007e-01  3.149110e+03
4334.1243 -4.669481e-01  3.157602e+03
4334.4619 -4.932946e-01  3.093188e+03
4334.7995 -5.352003e-01  2.989250e+03
4335.1371 -5.837464e-01  2.868448e+03
4335.4747 -6.002240e-01  2.829124e+03
4335.8123 -6.637942e-01  2.670163e+03
4336.1499 -6.926743e-01  2.599339e+03
4336.4875 -7.175320e-01  2.538740e+03
4336.8251 -7.077177e-01  2.566231e+03
4337.1627 -7.456514e-01  2.472422e+03
4337.5003 -7.994094e-01  2.338414e+03
4337.8379 -8.200967e-01  2.288430e+03
4338.1755 -8.931344e-01  2.105451e+03
4338.5131 -9.044356e-01  2.079322e+03
4338.8507 -9.215598e-01  2.038403e+03
4339.1883 -9.681083e-01  1.922735e+03
4339.5259 -1.015494e+00  1.804946e+03
4339.8635 -1.034286e+00  1.759801e+03
4340.2011 -1.055386e+00  1.708800e+03
4340.5388 -1.103361e+00  1.589526e+03
4340.8764 -1.107025e+00  1.582828e+03
4341.2140 -1.128845e+00  1.530009e+03
4341.5516 -1.130133e+00  1.529357e+03
4341.8892 -1.060388e+00  1.709171e+03
4342.2268 -1.063851e+00  1.702998e+03
4342.5644 -1.022378e+00  1.810993e+03
4342.9020 -9.865468e-01  1.904657e+03
4343.2396 -9.454069e-01  2.011812e+03
4343.5772 -9.673257e-01  1.958767e+03
4343.9148 -9.283804e-01  2.060353e+03
4344.2524 -8.856990e-01  2.171434e+03
4344.5900 -8.457145e-01  2.275667e+03
4344.9276 -8.087577e-01  2.372210e+03
4345.2652 -7.812236e-01  2.444818e+03
4345.6028 -7.232607e-01  2.594734e+03
4345.9404 -7.078214e-01  2.636619e+03
4346.2780 -6.504658e-01  2.784998e+03
4346.6156 -6.087235e-01  2.893713e+03
4346.9532 -5.904325e-01  2.942851e+03
4347.2908 -5.863945e-01  2.955782e+03
4347.6284 -5.346939e-01  3.089803e+03
4347.9660 -5.374404e-01  3.085502e+03
4348.3036 -5.374383e-01  3.088186e+03
4348.6412 -4.870264e-01  3.218940e+03
4348.9789 -4.874645e-01  3.220510e+03
4349.3165 -4.252551e-01  3.381239e+03
4349.6541 -4.029094e-01  3.440696e+03
4349.9917 -3.840794e-01  3.491222e+03
4350.3293 -3.775531e-01  3.510492e+03
4350.6669 -3.550231e-01  3.570422e+03
4351.0045 -3.561448e-01  3.570265e+03
4351.3421 -3.293363e-01  3.641067e+03
4351.6797 -2.992307e-01  3.720248e+03
4352.0173 -3.124197e-01  3.689437e+03
4352.3549 -3.203395e-01  3.672015e+03
4352.6925 -3.444372e-01  3.613492e+03
4353.0301 -2.966143e-01  3.737688e+03
4353.3677 -2.376584e-01  3.890170e+03
4353.7053 -2.359877e-01  3.897116e+03
4354.0429 -2.059296e-01  3.976183e+03
4354.3805 -1.902242e-01  4.018786e+03
4354.7181 -1.890001e-01  4.024600e+03
4355.0557 -1.792820e-01  4.051994e+03
4355.3933 -1.931862e-01  4.019375e+03
4355.7309 -1.528816e-01  4.124476e+03
4356.0685 -1.011607e-01  4.258581e+03
4356.4061 -1.090252e-01  4.241307e+03
4356.7437 -1.484241e-01  4.143919e+03
4357.0813 -1.221784e-01  4.213304e+03
4357.4189 -1.370903e-01  4.178126e+03
4357.7566 -1.132832e-01  4.241315e+03
4358.0942 -1.171002e-01  4.234325e+03
4358.4318 -1.283222e-01  4.208521e+03
4358.7694 -1.159207e-01  4.242733e+03
4359.1070 -9.121939e-02  4.308194e+03
4359.4446 -1.227523e-01  4.230789e+03
4359.7822 -6.615879e-02  4.377271e+03
4360.1198 -6.423175e-02  4.384872e+03
4360.4574 -5.910711e-02  4.400595e+03
4360.7950 -7.211108e-02  4.370261e+03
4361.1326 -5.990578e-02  4.403971e+03
4361.4702 -5.363058e-02  4.422615e+03
4361.8078 -4.697296e-02  4.442230e+03
4362.1454 -5.606543e-02  4.421830e+03
4362.4830 -4.068772e-02  4.463597e+03
4362.8206  6.087696e-03  4.585129e+03
4363.1582 -4.850629e-02  4.449128e+03
4363.4958 -1.047758e-02  4.548437e+03
4363.8334 -2.002012e-02  4.526888e+03
4364.1710 -4.904947e-02  4.455831e+03
4364.5086  2.026119e-02  4.634609e+03
4364.8462  6.358537e-03  4.601979e+03
4365.1838 -1.208686e-02  4.557807e+03
4365.5214 -1.037838e-02  4.564835e+03
4365.8590 -5.822294e-02  4.445970e+03
4366.1967  5.079199e-03  4.609476e+03
4366.5343  9.066537e-03  4.622288e+03
4366.8719  2.475717e-02  4.664832e+03
4367.2095 -4.828156e-02  4.481953e+03
4367.5471 -2.797995e-03  4.600183e+03
4367.8847  4.801149e-02  4.731941e+03
4368.2223  2.043699e-02  4.664561e+03
4368.5599  3.565516e-03  4.624369e+03
4368.8975  5.210412e-03  4.631217e+03
4369.2351 -4.177709e-02  4.514511e+03
4369.5727 -5.616214e-02  4.480630e+03
4369.9103 -3.890822e-02  4.527127e+03
4370.2479 -2.227920e-02  4.572034e+03
4370.5855  2.288527e-02  4.689435e+03
4370.9231  5.079818e-03  4.646855e+03
4371.2607 -4.752328e-02  4.515868e+03
4371.5983  2.634018e-02  4.706172e+03
4371.9359  2.379525e-02  4.702355e+03
4372.2735  8.014971e-03  4.664911e+03
4372.6111  2.744251e-02  4.716911e+03
4372.9487  9.701565e-03  4.674480e+03
4373.2863 -2.652682e-02  4.585079e+03
4373.6239 -2.126503e-02  4.601083e+03
4373.9615  8.495684e-03  4.679324e+03
4374.2991 -6.141219e-02  4.504350e+03
4374.6367  8.658101e-04  4.665197e+03
4374.9744 -1.173668e-02  4.635805e+03
4375.3120  2.090639e-02  4.721357e+03
4375.6496 -1.995909e-03  4.665792e+03
4375.9872 -2.269853e-02  4.615812e+03
4376.3248  6.277724e-02  4.835580e+03
4376.6624 -2.858805e-02  4.606072e+03
4377.0000  3.245892e-02  4.763771e+03
4377.3376  1.313581e-02  4.717284e+03
4377.6752  4.197799e-02  4.793160e+03
4378.0128 -1.210629e-02  4.658354e+03
4378.3504 -1.247529e-03  4.688536e+03
4378.6880  3.439728e-02  4.781684e+03
4379.0256  1.429984e-02  4.733214e+03
4379.3632  3.768931e-02  4.795221e+03
4379.7008  1.241416e-02  4.733590e+03
4380.0384 -4.493411e-02  4.590473e+03
4380.3760 -2.387751e-02  4.646543e+03
4380.7136  1.056261e-02  4.736611e+03
4381.0512 -3.156100e-02  4.632163e+03
4381.3888 -1.423521e-02  4.678745e+03
4381.7264  3.330413e-02  4.802083e+03
4382.0640  2.995692e-02  4.796137e+03
4382.4016  4.481795e-02  4.836447e+03
4382.7392  2.157694e-02  4.779954e+03
4383.0768  2.505500e-02  4.791338e+03
4383.4145  1.659099e-03  4.734445e+03
4383.7521 -3.436283e-03  4.724041e+03
4384.0897 -5.529710e-02  4.594824e+03
4384.4273 -7.419728e-02  4.549342e+03
4384.7649 -2.700705e-02  4.671761e+03
4385.1025 -3.599197e-02  4.651462e+03
4385.4401 -9.230313e-02  4.510925e+03
4385.7777 -5.800835e-02  4.600572e+03
4386.1153 -7.030005e-02  4.571861e+03
4386.4529 -1.340255e-02  4.718925e+03
4386.7905 -3.222650e-02  4.673611e+03
4387.1281 -1.225124e-02  4.726865e+03
4387.4657 -2.642681e-02  4.693354e+03
4387.8033  1.723689e-02  4.806782e+03
4388.1409  6.630127e-03  4.782331e+03
4388.4785  2.661101e-02  4.835584e+03
4388.8161  7.319210e-04  4.772326e+03
4389.1537  1.651326e-02  4.814903e+03
4389.4913  8.860802e-03  4.797943e+03
4389.8289  8.353586e-04  4.780031e+03
4390.1665  2.084000e-02  4.833328e+03
4390.5041  2.682672e-02  4.851007e+03
4390.8417  3.659322e-02  4.878286e+03
4391.1793  7.566207e-03  4.807005e+03
4391.5169  4.684660e-02  4.909258e+03
4391.8546  2.930974e-02  4.867161e+03
4392.1922  1.603911e-02  4.835898e+03
4392.5298  3.627709e-02  4.889763e+03
4392.8674 -8.403041e-03  4.778696e+03
4393.2050  1.885172e-02  4.850380e+03
4393.5426  3.934288e-06  4.804935e+03
4393.8802  4.005593e-02  4.909123e+03
4394.2178  5.653669e-02  4.953424e+03
4394.5554 -1.394978e-02  4.776778e+03
4394.8930  6.257842e-04  4.816232e+03
4395.2306 -1.200837e-02  4.786556e+03
4395.5682 -2.695827e-02  4.750992e+03
4395.9058 -3.311733e-02  4.737759e+03
4396.2434 -4.861902e-02  4.700787e+03
4396.5810 -4.672682e-02  4.708001e+03
4396.9186 -3.130053e-03  4.821164e+03
4397.2562  7.353225e-02  5.018328e+03
4397.5938  5.675469e-02  4.978101e+03
4397.9314  5.911365e-02  4.986488e+03
4398.2690  3.980273e-03  4.848810e+03
4398.6066 -7.985595e-03  4.820797e+03
4398.9442  1.074580e-02  4.870769e+03
4399.2818  6.455613e-02  5.009856e+03
4399.6194  5.563060e-02  4.989558e+03
4399.9570  1.540974e-02  4.889750e+03
4400.2946  2.269998e-02  4.910642e+03
4400.6323  2.297016e-02  4.913696e+03
4400.9699  3.221193e-02  4.939540e+03
4401.3075  3.361449e-02  4.945464e+03
4401.6451  4.842968e-02  4.985461e+03
4401.9827  1.077246e-01  5.138458e+03
4402.3203  5.821387e-02  5.015026e+03
4402.6579  3.869743e-02  4.967793e+03
4402.9955  3.005434e-03  4.879463e+03
4403.3331 -6.516030e-03  4.857617e+03
4403.6707  3.402028e-02  4.962941e+03
4404.0083  9.923237e-03  4.904060e+03
4404.3459  2.780576e-02  4.951826e+03
4404.6835 -1.864987e-02  4.836135e+03
4405.0211 -2.078618e-02  4.833037e+03
4405.3587 -5.447994e-02  4.749763e+03
4405.6963 -2.748854e-02  4.820660e+03
4406.0339 -1.938893e-02  4.843558e+03
4406.3715  5.788896e-03  4.909842e+03
4406.7091 -4.370130e-03  4.886348e+03
4407.0467 -3.424986e-03  4.891062e+03
4407.3843  2.720446e-02  4.971188e+03
4407.7219  2.944527e-02  4.979189e+03
4408.0595  2.065943e-02  4.959174e+03
4408.3971 -2.572432e-02  4.843638e+03
4408.7347 -1.018984e-01  4.652415e+03
4409.0724 -6.002264e-02  4.761101e+03
4409.4100 -3.678798e-02  4.822425e+03
4409.7476  2.743373e-02  4.987877e+03
4410.0852  9.221427e-02  5.154746e+03
4410.4228 -3.262547e-03  4.914473e+03
4410.7604  1.447865e-02  4.961832e+03
4411.0980 -1.517653e-02  4.888777e+03
4411.4356  8.542850e-03  4.951320e+03
4411.7732  2.223138e-02  4.988377e+03
4412.1108  4.072463e-02  5.037639e+03
4412.4484  4.899788e-02  5.060934e+03
4412.7860  9.588496e-03  4.963088e+03
4413.1236  6.318898e-02  5.101535e+03
4413.4612  8.124068e-02  5.149667e+03
4413.7988  3.858306e-02  5.043563e+03
4414.1364  2.438859e-02  5.009770e+03
4414.4740  2.669635e-02  5.017898e+03
4414.8116 -2.315179e-02  4.893521e+03
4415.1492  2.410456e-02  5.015841e+03
4415.4868 -5.030726e-03  4.944083e+03
4415.8244 -3.617135e-02  4.867228e+03
4416.1620 -8.157369e-03  4.940657e+03
4416.4996  8.156881e-03  4.984360e+03
4416.8372  3.090870e-02  5.044417e+03
4417.1748  2.295874e-02  5.026474e+03
4417.5124  6.267386e-02  5.129625e+03
4417.8501 -1.094493e-02  4.944844e+03
4418.1877 -6.292872e-02  4.815027e+03
4418.5253 -1.065544e-02  4.950079e+03
4418.8629 -2.500639e-02  4.915867e+03
4419.2005 -1.653443e-02  4.939637e+03
4419.5381 -2.105930e-02  4.930387e+03
4419.8757  3.928259e-03  4.996114e+03
4420.2133  3.943039e-03  4.998395e+03
4420.5509  4.340636e-02  5.100896e+03
4420.8885  9.141792e-02  5.225113e+03
4421.2261  2.402659e-02  5.056144e+03
4421.5637  9.670458e-03  5.021912e+03
4421.9013 -3.846016e-02  4.901874e+03
4422.2389  3.040329e-02  5.079063e+03
4422.5765  1.168163e-02  5.033739e+03
4422.9141  5.807381e-02  5.153838e+03
4423.2517  5.163350e-02  5.139713e+03
4423.5893  5.751523e-03  5.025385e+03
4423.9269  1.225902e-02  5.044154e+03
4424.2645 -1.068312e-02  4.988105e+03
4424.6021  8.197834e-03  5.038309e+03
4424.9397  4.282511e-02  5.128516e+03
4425.2773  5.310396e-02  5.156865e+03
4425.6149 -2.326033e-02  4.965094e+03
4425.9525 -7.400952e-03  5.007620e+03
4426.2902  3.112507e-02  5.107732e+03
4426.6278  1.283573e-02  5.063502e+03
4426.9654  1.322416e-02  5.066724e+03
4427.3030  1.477516e-02  5.072899e+03
4427.6406 -3.935800e-02  4.937606e+03
4427.9782  2.375398e-02  5.100180e+03
4428.3158  6.774251e-03  5.059278e+03
4428.6534 -1.007142e-02  5.018716e+03
4428.9910 -3.459621e-02  4.958646e+03
4429.3286  7.818370e-03  5.068638e+03
4429.6662 -1.597827e-02  5.010418e+03
4430.0038  1.664284e-02  5.095531e+03
4430.3414  6.048954e-02  5.209163e+03
4430.6790 -3.243063e-03  5.049485e+03
4431.0166 -1.188431e-02  5.029771e+03
4431.3542 -5.169265e-02  4.930875e+03
4431.6918 -6.393685e-03  5.048199e+03
4432.0294  2.271193e-02  5.124383e+03
4432.3670  8.829401e-03  5.091355e+03
4432.7046  1.939713e-02  5.120445e+03
4433.0422  2.483867e-02  5.136513e+03
4433.3798  1.878406e-02  5.123375e+03
4433.7174  3.349815e-02  5.163001e+03
4434.0550  2.242111e-02  5.137105e+03
4434.3926 -2.361675e-02  5.022391e+03
4434.7302 -3.811261e-02  4.987811e+03
4435.0679 -9.232422e-03  5.063431e+03
4435.4055 -2.161654e-02  5.034219e+03
4435.7431  3.956584e-03  5.101439e+03
4436.0807 -4.414729e-02  4.981482e+03
4436.4183 -4.385119e-02  4.984488e+03
4436.7559 -2.972346e-02  5.022635e+03
4437.0935 -2.034349e-03  5.095236e+03
4437.4311 -8.617359e-03  5.080770e+03
4437.7687  1.664899e-02  5.147219e+03
4438.1063  1.517053e-02  5.145723e+03
4438.4439  2.819516e-02  5.181075e+03
4438.7815  3.126670e-02  5.191142e+03
4439.1191  7.921555e-02  5.315223e+03
4439.4567  5.848471e-02  5.264822e+03
4439.7943  4.531305e-02  5.233627e+03
4440.1319 -6.560011e-03  5.104111e+03
4440.4695  2.847239e-02  5.195384e+03
4440.8071 -1.222796e-02  5.094257e+03
4441.1447 -4.316354e-02  5.017939e+03
4441.4823  2.012799e-02  5.181011e+03
4441.8199  1.877874e-02  5.179862e+03
4442.1575 -8.775802e-03  5.112139e+03
4442.4951  1.770436e-02  5.181696e+03
4442.8327  2.738873e-02  5.208584e+03
4443.1703 -2.893265e-03  5.133938e+03
4443.5080 -3.756580e-02  5.048140e+03
4443.8456 -1.143723e-02  5.116811e+03
4444.1832 -3.547873e-02  5.058025e+03
4444.5208 -1.921280e-02  5.101645e+03
4444.8584 -6.394142e-02  4.990307e+03
4445.1960  2.396073e-02  5.215925e+03
4445.5336  1.498382e-02  5.195420e+03
4445.8712 -1.022587e-02  5.133677e+03
4446.2088  3.384687e-02  5.247952e+03
4446.5464  2.227555e-02  5.220862e+03
4446.8840  5.694447e-02  5.311250e+03
4447.2216  6.628454e-02  5.337292e+03
4447.5592  5.844696e-02  5.319695e+03
4447.8968  3.805460e-02  5.270205e+03
4448.2344  5.467322e-02  5.314745e+03
4448.5720  6.822454e-03  5.195500e+03
4448.9096  3.408143e-02  5.267078e+03
4449.2472  4.086751e-02  5.286645e+03
4449.5848  8.031072e-03  5.205552e+03
4449.9224  1.705332e-02  5.230806e+03
4450.2600 -3.562680e-02  5.099304e+03
4450.5976  1.456103e-02  5.229146e+03
4450.9352  5.229204e-02  5.327342e+03
4451.2728  3.315976e-02  5.281078e+03
4451.6104 -2.177096e-02  5.143869e+03
4451.9480 -4.572343e-02  5.085364e+03
4452.2857 -1.535163e-02  5.164875e+03
4452.6233 -3.095583e-02  5.127584e+03
4452.9609 -1.418239e-01  4.848275e+03
4453.2985 -6.711389e-02  5.040437e+03
4453.6361 -4.950036e-02  5.087545e+03
4453.9737 -5.727330e-02  5.070161e+03
4454.3113  2.541004e-02  5.282587e+03
4454.6489  4.138732e-02  5.325546e+03
4454.9865  8.647658e-03  5.244741e+03
4455.3241  2.064089e-02  5.277584e+03
4455.6617 -8.628497e-03  5.205601e+03
4455.9993  1.309177e-03  5.233228e+03
4456.3369 -1.362974e-02  5.197657e+03
4456.6745 -3.166158e-02  5.154231e+03
4457.0121  2.516672e-02  5.300993e+03
4457.3497 -2.270375e-02  5.181767e+03
4457.6873  5.012608e-03  5.254574e+03
4458.0249  4.735553e-02  5.364544e+03
4458.3625  4.279506e-02  5.355356e+03
4458.7001  4.007898e-02  5.350857e+03
4459.0377  1.735942e-02  5.295542e+03
4459.3753  6.701684e-02  5.424105e+03
4459.7129  4.036934e-02  5.358815e+03
4460.0505 -2.761787e-02  5.188503e+03
4460.3881 -2.627209e-03  5.254408e+03
4460.7258 -2.490837e-02  5.200220e+03
4461.0634 -2.196951e-02  5.210106e+03
4461.4010  1.072883e-02  5.295601e+03
4461.7386 -3.014721e-02  5.194180e+03
4462.0762 -2.101978e-02  5.219797e+03
4462.4138 -1.722472e-02  5.231870e+03
4462.7514 -3.516864e-02  5.188716e+03
4463.0890 -7.381944e-02  5.092959e+03
4463.4266 -6.762029e-02  5.111147e+03
4463.7642 -3.929795e-02  5.185543e+03
4464.1018  2.768626e-03  5.294860e+03
4464.4394  1.475303e-02  5.327754e+03
4464.7770 -2.938112e-02  5.218079e+03
4465.1146  3.300400e-02  5.379023e+03
4465.4522 -2.272339e-03  5.291857e+03
4465.7898  1.028669e-02  5.326222e+03
4466.1274  6.340015e-04  5.304159e+03
4466.4650  9.087466e-03  5.328098e+03
4466.8026  3.876009e-02  5.405947e+03
4467.1402  4.541821e-02  5.425330e+03
4467.4778  3.255462e-02  5.395120e+03
4467.8154 -1.827246e-02  5.268464e+03
4468.1530 -2.951161e-02  5.242385e+03
4468.4906 -2.386423e-02  5.259210e+03
4468.8282  3.677982e-02  5.415758e+03
4469.1659 -1.528952e-02  5.285956e+03
4469.5035 -1.939730e-02  5.278004e+03
4469.8411 -2.462131e-02  5.267219e+03
4470.1787 -6.428307e-02  5.168946e+03
4470.5163 -3.129744e-02  5.255238e+03
4470.8539  1.571608e-02  5.377171e+03
4471.1915 -3.693746e-02  5.245898e+03
4471.5291 -5.850322e-02  5.193607e+03
4471.8667 -7.922779e-03  5.324609e+03
4472.2043  8.181724e-03  5.368025e+03
4472.5419 -1.013890e-03  5.347167e+03
4472.8795 -1.462926e-02  5.315083e+03
4473.2171 -1.267794e-02  5.322548e+03
4473.5547  1.037783e-02  5.383632e+03
4473.8923  2.946171e-03  5.367263e+03
4474.2299 -7.354552e-03  5.343607e+03
4474.5675  1.268980e-02  5.397046e+03
4474.9051  4.950790e-02  5.493102e+03
4475.2427  7.099367e-02  5.550206e+03
4475.5803  3.668701e-02  5.465569e+03
4475.9179  4.960142e-02  5.500901e+03
4476.2555  4.985104e-02  5.504060e+03
4476.5931  8.869027e-03  5.402469e+03
4476.9307  2.644248e-03  5.389182e+03
4477.2683  2.984480e-02  5.460814e+03
4477.6059  3.602279e-02  5.479040e+03
4477.9436  5.078949e-03  5.402958e+03
4478.2812  2.645718e-02  5.459803e+03
4478.6188  9.284076e-03  5.418708e+03
4478.9564  2.368862e-02  5.457839e+03
4479.2940 -2.232272e-02  5.343482e+03
4479.6316 -6.211602e-02  5.244923e+03
4479.9692 -4.233254e-02  5.297723e+03
4480.3068 -1.009782e-01  5.151271e+03
4480.6444 -1.483584e-01  5.033441e+03
4480.9820 -1.391680e-01  5.059332e+03
4481.3196 -1.640755e-01  4.998597e+03
4481.6572 -2.728815e-01  4.724714e+03
4481.9948 -2.614172e-01  4.756385e+03
4482.3324 -2.621596e-01  4.757044e+03
4482.6700 -2.140931e-01  4.881705e+03
4483.0076 -7.707843e-02  5.232343e+03
4483.3452 -5.528344e-02  5.290262e+03
4483.6828  2.984331e-02  5.509078e+03
4484.0204  1.646031e-02  5.477626e+03
4484.3580  4.053976e-02  5.541350e+03
4484.6956  5.523662e-03  5.454939e+03
4485.0332 -9.003902e-03  5.420581e+03
4485.3708  4.860471e-02  5.569487e+03
4485.7084 -4.356021e-03  5.437488e+03
4486.0460  5.564070e-02  5.592462e+03
4486.3837  6.884576e-03  5.471146e+03
4486.7213 -1.352882e-02  5.421834e+03
4487.0589  3.495385e-02  5.547557e+03
4487.3965  2.797022e-02  5.532364e+03
4487.7341  7.208750e-02  5.646996e+03
4488.0717 -2.703393e-03  5.459536e+03
4488.4093  1.946843e-02  5.518413e+03
4488.7469  1.056909e-02  5.498353e+03
4489.0845  1.398140e-02  5.509570e+03
4489.4221  6.372083e-03  5.492786e+03
4489.7597  4.260228e-02  5.587377e+03
4490.0973 -5.542275e-02  5.340887e+03
4490.4349 -7.398586e-02  5.296272e+03
4490.7725 -1.013643e-01  5.229261e+03
4491.1101  2.438173e-02  5.551268e+03
4491.4477 -4.574881e-03  5.480245e+03
4491.7853  3.764189e-02  5.590041e+03
4492.1229  1.087075e-03  5.499712e+03
4492.4605  6.691820e-03  5.516491e+03
4492.7981 -6.730939e-04  5.500319e+03
4493.1357 -4.263539e-03  5.493734e+03
4493.4733  5.812257e-02  5.654765e+03
4493.8109  1.782172e-02  5.554913e+03
4494.1485 -1.972782e-02  5.462050e+03
4494.4861 -2.836377e-02  5.442641e+03
4494.8237 -5.061304e-03  5.504372e+03
4495.1614  1.143869e-02  5.548818e+03
4495.4990  1.797904e-04  5.522741e+03
4495.8366  4.334764e-02  5.634935e+03
4496.1742 -1.078511e-03  5.524590e+03
4496.5118  3.672288e-02  5.623146e+03
4496.8494  1.806101e-03  5.536957e+03
4497.1870  1.764755e-02  5.579719e+03
4497.5246  6.211842e-02  5.695212e+03
4497.8622  2.879127e-02  5.613055e+03
4498.1998  9.421572e-03  5.566354e+03
4498.5374 -2.543256e-02  5.480312e+03
4498.8750  8.354365e-03  5.568653e+03
4499.2126  1.130624e-02  5.578653e+03
4499.5502  2.940269e-02  5.627126e+03
4499.8878  7.500062e-03  5.573978e+03
4500.2254 -2.153362e-02  5.502709e+03
4500.5630  1.780405e-02  5.605138e+03
4500.9006  2.184175e-02  5.617882e+03
4501.2382 -1.291290e-02  5.532070e+03
4501.5758 -4.372897e-02  5.456261e+03
4501.9134 -7.767058e-02  5.372508e+03
4502.2510 -6.192403e-02  5.414987e+03
4502.5886 -3.811890e-02  5.477935e+03
4502.9262 -1.214230e-02  5.546396e+03
4503.2638 -9.209525e-03  5.556311e+03
4503.6015 -3.557383e-02  5.491791e+03
4503.9391  9.609384e-03  5.609036e+03
4504.2767 -1.663873e-02  5.544804e+03
4504.6143 -1.997135e-02  5.538785e+03
4504.9519 -1.640429e-02  5.550292e+03
4505.2895 -1.454541e-02  5.557454e+03
4505.6271  4.025947e-02  5.699124e+03
4505.9647  5.174065e-02  5.730724e+03
4506.3023  1.375368e-02  5.636644e+03
4506.6399  2.450044e-02  5.666370e+03
4506.9775  4.755161e-02  5.727351e+03
4507.3151  2.967089e-02  5.684338e+03
4507.6527 -3.064139e-02  5.533521e+03
4507.9903 -1.042601e-02  5.587284e+03
4508.3279  1.302360e-02  5.649259e+03
4508.6655 -1.357305e-02  5.584084e+03
4509.0031 -5.065166e-02  5.492274e+03
4509.3407 -8.269104e-02  5.413262e+03
4509.6783 -3.718932e-02  5.531241e+03
4510.0159 -3.674261e-02  5.534751e+03
4510.3535  2.484479e-02  5.693586e+03
4510.6911  8.278775e-02  5.843157e+03
4511.0287 -1.249833e-02  5.603438e+03
4511.3663  5.295935e-02  5.772089e+03
4511.7039  1.341573e-02  5.673975e+03
4512.0415  7.455647e-02  5.831647e+03
4512.3792 -6.705134e-03  5.627536e+03
4512.7168  8.827908e-02  5.871178e+03
4513.0544  2.461104e-02  5.711751e+03
4513.3920 -2.785157e-02  5.580787e+03
4513.7296 -8.020067e-03  5.633483e+03
4514.0672  6.889774e-03  5.673669e+03
4514.4048 -2.362165e-03  5.652465e+03
4514.7424 -4.762261e-02  5.539773e+03
4515.0800 -2.722688e-02  5.593878e+03
4515.4176 -4.059360e-02  5.562201e+03
4515.7552 -7.466957e-02  5.477905e+03
4516.0928 -3.337859e-02  5.585076e+03
4516.4304 -6.846017e-02  5.498212e+03
4516.7680 -2.091395e-02  5.621261e+03
4517.1056 -4.743255e-02  5.556138e+03
4517.4432  5.999024e-03  5.694125e+03
4517.7808  9.710904e-03  5.705791e+03
4518.1184 -3.986000e-02  5.582083e+03
4518.4560 -1.372165e-02  5.650709e+03
4518.7936  2.136217e-02  5.742056e+03
4519.1312 -5.747180e-02  5.543982e+03
4519.4688 -2.085437e-02  5.639210e+03
4519.8064 -6.918376e-03  5.676808e+03
4520.1440 -3.294641e-02  5.612868e+03
4520.4816 -3.039990e-02  5.621515e+03
4520.8193 -7.394270e-03  5.682132e+03
4521.1569  2.086435e-02  5.756087e+03
4521.4945 -4.533960e-03  5.693717e+03
4521.8321  3.959547e-02  5.807978e+03
4522.1697  3.245106e-02  5.791967e+03
4522.5073  3.696871e-02  5.805576e+03
4522.8449 -8.948307e-03  5.691046e+03
4523.1825 -6.119371e-02  5.560431e+03
4523.5201 -5.999555e-02  5.565583e+03
4523.8577 -1.865317e-02  5.672716e+03
4524.1953 -4.460439e-02  5.608878e+03
4524.5329  3.549490e-02  5.814458e+03
4524.8705  3.913616e-02  5.825784e+03
4525.2081  5.134531e-02  5.858870e+03
4525.5457 -1.106035e-02  5.702385e+03
4525.8833 -6.797305e-03  5.715266e+03
4526.2209 -1.652471e-02  5.692596e+03
4526.5585 -2.750170e-02  5.666742e+03
4526.8961 -2.685248e-02  5.670417e+03
4527.2337 -1.439676e-02  5.704078e+03
4527.5713 -6.075792e-03  5.727226e+03
4527.9089  2.731170e-02  5.814048e+03
4528.2465  1.165253e-02  5.776256e+03
4528.5841  1.150068e-02  5.777852e+03
4528.9217  2.754821e-03  5.757606e+03
4529.2593  4.927644e-02  5.877760e+03
4529.5970  3.238695e-02  5.836807e+03
4529.9346 -3.366663e-03  5.747920e+03
4530.2722  2.615585e-02  5.824860e+03
4530.6098  9.126391e-02  5.992198e+03
4530.9474  6.263667e-02  5.921389e+03
4531.2850  3.575816e-02  5.855013e+03
4531.6226 -8.873300e-03  5.743525e+03
4531.9602  6.208139e-02  5.925680e+03
4532.2978  3.591108e-02  5.861076e+03
4532.6354 -1.851545e-02  5.724676e+03
4532.9730  2.658433e-02  5.841117e+03
4533.3106 -1.028893e-03  5.772819e+03
4533.6482  1.156473e-02  5.806658e+03
4533.9858  3.241995e-02  5.861477e+03
4534.3234 -7.657817e-02  5.586389e+03
4534.6610 -2.281039e-02  5.724804e+03
4534.9986 -7.478958e-02  5.594556e+03
4535.3362 -2.710456e-02  5.717499e+03
4535.6738 -2.784487e-02  5.717405e+03
4536.0114  2.150888e-02  5.844568e+03
4536.3490 -1.208853e-02  5.760981e+03
4536.6866  2.135481e-02  5.847704e+03
4537.0242  3.543632e-02  5.885227e+03
4537.3618 -1.972512e-02  5.746826e+03
4537.6994  2.572390e-02  5.864021e+03
4538.0371  7.074971e-02  5.980130e+03
4538.3747  6.740960e-03  5.819223e+03
4538.7123  5.319062e-03  5.817310e+03
4539.0499 -1.867329e-03  5.800743e+03
4539.3875  2.271610e-02  5.864878e+03
4539.7251  1.670315e-02  5.851272e+03
4540.0627  2.734941e-02  5.879979e+03
4540.4003 -1.918117e-02  5.763417e+03
4540.7379  6.002857e-02  5.966293e+03
4541.0755  7.907217e-04  5.817427e+03
4541.4131  8.027515e-03  5.837433e+03
4541.7507  2.174350e-02  5.873890e+03
4542.0883  3.025049e-02  5.897103e+03
4542.4259 -1.056352e-02  5.795003e+03
4542.7635  9.001051e-03  5.846289e+03
4543.1011  6.228320e-02  5.983225e+03
4543.4387  2.672276e-02  5.894442e+03
4543.7763  4.478772e-02  5.941888e+03
4544.1139 -9.705744e-03  5.804985e+03
4544.4515 -3.064403e-02  5.753321e+03
4544.7891 -4.040641e-02  5.730040e+03
4545.1267  3.532306e-02  5.923944e+03
4545.4643  2.329238e-02  5.894880e+03
4545.8019 -1.401253e-02  5.801596e+03
4546.1395  1.660715e-02  5.880867e+03
4546.4771  1.689131e-02  5.883060e+03
4546.8148  2.707691e-02  5.910397e+03
4547.1524  3.399047e-02  5.929412e+03
4547.4900 -2.978997e-03  5.836930e+03
4547.8276  1.800922e-02  5.891682e+03
4548.1652 -2.154498e-03  5.841875e+03
4548.5028  1.856978e-02  5.895937e+03
4548.8404 -4.411962e-02  5.738073e+03
4549.1780 -1.110692e-01  5.569375e+03
4549.5156 -1.197072e-01  5.548811e+03
4549.8532 -7.959211e-02  5.652096e+03
4550.1908 -1.190877e-01  5.553117e+03
4550.5284 -8.174936e-02  5.649328e+03
4550.8660 -1.975284e-02  5.808174e+03
4551.2036 -8.358305e-02  5.647343e+03
4551.5412  3.945347e-03  5.871034e+03
4551.8788  5.494347e-02  6.001909e+03
4552.2164  2.214479e-02  5.919885e+03
4552.5540  2.838085e-02  5.937021e+03
4552.8916  2.808972e-02  5.937564e+03
4553.2292  5.471346e-03  5.881375e+03
4553.5668  6.557859e-02  6.035344e+03
4553.9044  9.059332e-02  6.100149e+03
4554.2420  4.787181e-02  5.992858e+03
4554.5796  3.935499e-04  5.873473e+03
4554.9172  4.025933e-02  5.975979e+03
4555.2549 -3.169627e-02  5.794389e+03
4555.5925  5.848287e-03  5.890979e+03
4555.9301 -2.354930e-02  5.817491e+03
4556.2677 -2.585246e-02  5.812828e+03
4556.6053 -3.254824e-02  5.796996e+03
4556.9429 -4.866742e-03  5.868492e+03
4557.2805 -3.443156e-02  5.794542e+03
4557.6181 -1.039613e-03  5.880526e+03
4557.9557  3.492673e-02  5.973042e+03
4558.2933 -1.103219e-02  5.857415e+03
4558.6309 -3.088373e-02  5.808105e+03
4558.9685 -2.206188e-02  5.831633e+03
4559.3061 -2.522723e-02  5.824697e+03
4559.6437 -1.937453e-02  5.840664e+03
4559.9813 -1.551432e-02  5.851559e+03
4560.3189  6.229716e-03  5.907880e+03
4560.6565  2.345116e-02  5.952703e+03
4560.9941  3.710655e-02  5.988458e+03
4561.3317  3.528972e-02  5.984896e+03
4561.6693  2.539193e-02  5.960795e+03
4562.0069  4.734605e-02  6.017607e+03
4562.3445  9.118902e-02  6.130020e+03
4562.6821  6.441678e-02  6.063024e+03
4563.0197  5.750036e-03  5.914990e+03
4563.3573  9.134261e-03  5.924591e+03
4563.6950  9.553628e-03  5.926652e+03
4564.0326  4.818510e-02  6.025784e+03
4564.3702  4.661219e-02  6.022767e+03
4564.7078 -8.166515e-02  5.697844e+03
4565.0454 -1.173746e-02  5.876461e+03
4565.3830  1.942454e-02  5.956584e+03
4565.7206  1.828554e-02  5.954638e+03
4566.0582  8.765679e-02  6.131818e+03
4566.3958  3.310493e-02  5.994159e+03
4566.7334  4.218592e-02  6.018154e+03
4567.0710  7.832181e-02  6.110876e+03
4567.4086  7.197479e-02  6.095661e+03
4567.7462  2.882074e-02  5.986928e+03
4568.0838  7.072388e-02  6.094280e+03
4568.4214  2.786401e-02  5.986280e+03
4568.7590  1.279731e-02  5.948883e+03
4569.0966  1.337042e-02  5.951213e+03
4569.4342  3.828673e-02  6.015380e+03
4569.7718  3.476095e-02  6.007283e+03
4570.1094  2.506568e-02  5.983504e+03
4570.4470  3.313329e-02  6.004847e+03
4570.7846  6.038696e-02  6.074925e+03
4571.1222  6.139291e-02  6.078314e+03
4571.4598  3.495067e-02  6.011963e+03
4571.7974  4.765236e-03  5.936096e+03
4572.1350  1.612483e-02  5.965769e+03
4572.4727 -1.713059e-03  5.921259e+03
4572.8103 -1.874343e-02  5.878794e+03
4573.1479 -2.444647e-02  5.865101e+03
4573.4855 -2.105996e-02  5.874494e+03
4573.8231 -2.615562e-02  5.862332e+03
4574.1607 -2.653291e-02  5.862151e+03
4574.4983 -2.685934e-02  5.862094e+03
4574.8359 -2.718434e-02  5.862035e+03
4575.1735 -2.750602e-02  5.861979e+03
4575.5111 -2.782692e-02  5.861919e+03
4575.8487 -2.814418e-02  5.861863e+03
4576.1863 -2.846055e-02  5.861805e+03
4576.5239 -2.877374e-02  5.861749e+03
4576.8615 -2.908610e-02  5.861690e+03
4577.1991 -2.939652e-02  5.861632e+03
4577.5367 -2.970427e-02  5.861575e+03
4577.8743 -3.001053e-02  5.861518e+03
4578.2119 -3.031497e-02  5.861460e+03
4578.5495 -3.061760e-02  5.861402e+03
4578.8871 -3.091849e-02  5.861345e+03
4579.2247 -3.121766e-02  5.861287e+03
4579.5623 -3.151478e-02  5.861230e+03
4579.8999 -3.181063e-02  5.861173e+03
4580.2375 -3.210528e-02  5.861114e+03
4580.5751 -3.239760e-02  5.861058e+03
4580.9128 -3.268859e-02  5.861000e+03
4581.2504 -3.297868e-02  5.860942e+03
4581.5880 -3.326656e-02  5.860885e+03
4581.9256 -3.355381e-02  5.860827e+03
4582.2632 -3.383931e-02  5.860769e+03
4582.6008 -3.412331e-02  5.860712e+03
4582.9384 -3.440583e-02  5.860655e+03
4583.2760 -3.468768e-02  5.860597e+03
4583.6136 -3.496834e-02  5.860539e+03
4583.9512 -3.524746e-02  5.860482e+03
4584.2888 -3.552565e-02  5.860424e+03
4584.6264 -3.580314e-02  5.860366e+03
4584.9640 -3.607902e-02  5.860309e+03
4585.3016 -3.635372e-02  5.860252e+03
4585.6392 -3.662842e-02  5.860193e+03
4585.9768 -3.690163e-02  5.860135e+03
4586.3144 -3.717396e-02  5.860078e+03
4586.6520 -3.744508e-02  5.860021e+03
4586.9896 -3.771598e-02  5.859963e+03
4587.3272 -3.798574e-02  5.859906e+03
4587.6648 -3.825518e-02  5.859848e+03
4588.0024 -3.852337e-02  5.859791e+03
4588.3400 -3.879170e-02  5.859732e+03
4588.6776 -3.905907e-02  5.859675e+03
4589.0152 -3.932588e-02  5.859617e+03
4589.3528 -3.959257e-02  5.859559e+03
4589.6905 -3.985764e-02  5.859503e+03
4590.0281 -4.011345e-02  5.859470e+03
4590.3657 -4.066813e-02  5.858676e+03
4590.7033 -4.295183e-02  5.853489e+03
4591.0409 -4.442321e-02  5.850365e+03
4591.3785 -4.025568e-02  5.861566e+03
4591.7161 -3.949288e-02  5.864117e+03
4592.0537 -4.028033e-02  5.862729e+03
4592.3913 -3.326987e-02  5.881151e+03
4592.7289 -3.914624e-02  5.866834e+03
4593.0665 -4.328932e-02  5.856920e+03
4593.4041 -5.071700e-02  5.838661e+03
4593.7417 -3.209872e-02  5.886573e+03
4594.0793 -4.621416e-03  5.956992e+03
4594.4169  3.585457e-02  6.060435e+03
4594.7545  9.918120e-03  5.995155e+03
4595.0921  6.326179e-03  5.986642e+03
4595.4297  4.687909e-02  6.090282e+03
4595.7673  1.815593e-02  6.017923e+03
4596.1049 -5.857376e-03  5.957531e+03
4596.4425 -2.821544e-02  5.901345e+03
4596.7801 -1.585735e-02  5.933358e+03
4597.1177  2.788609e-02  6.045107e+03
4597.4553  2.161917e-02  6.029805e+03
4597.7929  1.343584e-03  5.978914e+03
4598.1306 -4.426546e-03  5.964875e+03
4598.4682 -3.163571e-02  5.896372e+03
4598.8058 -2.487128e-03  5.971049e+03
4599.1434  4.811626e-03  5.990218e+03
4599.4810 -1.519746e-02  5.940011e+03
4599.8186 -2.005646e-02  5.928296e+03
4600.1562 -2.074804e-02  5.927170e+03
4600.4938 -1.205825e-03  5.977451e+03
4600.8314  1.407575e-02  6.016909e+03
4601.1690  2.962057e-02  6.057039e+03
4601.5066  8.019212e-03  6.002799e+03
4601.8442  1.318924e-02  6.016575e+03
4602.1818  8.409698e-03  6.005077e+03
4602.5194 -1.549730e-03  5.980421e+03
4602.8570  2.883567e-03  5.992333e+03
4603.1946  4.313145e-03  5.996617e+03
4603.5322 -2.825510e-02  5.914530e+03
4603.8698 -3.510231e-02  5.897792e+03
4604.2074  2.660174e-02  6.055214e+03
4604.5450  4.310824e-02  6.097812e+03
4604.8826 -6.474522e-03  5.972512e+03
4605.2202  2.298796e-02  6.048032e+03
4605.5578  2.789579e-02  6.061173e+03
4605.8954  4.404001e-02  6.102864e+03
4606.2330  3.860701e-02  6.089740e+03
4606.5706  2.642552e-03  5.999054e+03
4606.9083 -2.769918e-03  5.985989e+03
4607.2459  2.818350e-02  6.065317e+03
4607.5835  4.356147e-02  6.105079e+03
4607.9211  4.150024e-02  6.100540e+03
4608.2587  1.961965e-02  6.045652e+03
4608.5963 -4.024895e-03  5.986287e+03
4608.9339 -1.132511e-02  5.968449e+03
4609.2715  8.588809e-03  6.019753e+03
4609.6091  2.104029e-02  6.052104e+03
4609.9467  4.427445e-02  6.111852e+03
4610.2843  5.478305e-02  6.139274e+03
4610.6219  4.746920e-02  6.121422e+03
4610.9595  3.736183e-02  6.096477e+03
4611.2971  2.211903e-02  6.058490e+03
4611.6347  3.374154e-02  6.088759e+03
4611.9723  4.526256e-02  6.118775e+03
4612.3099  3.606349e-02  6.096156e+03
4612.6475  2.499218e-02  6.068784e+03
4612.9851  2.514369e-02  6.069929e+03
4613.3227  4.149894e-02  6.112245e+03
4613.6603  4.081572e-02  6.111279e+03
4613.9979  4.509314e-02  6.122920e+03
4614.3355  5.270943e-02  6.143048e+03
4614.6731  3.667336e-02  6.103092e+03
4615.0107  4.106944e-02  6.115049e+03
4615.3484  2.841853e-02  6.083702e+03
4615.6860  5.969997e-04  6.013819e+03
4616.0236 -2.663875e-02  5.945429e+03
4616.3612 -1.607020e-02  5.973087e+03
4616.6988 -1.852990e-02  5.967651e+03
4617.0364  1.262953e-03  6.018754e+03
4617.3740  3.068503e-03  6.024165e+03
4617.7116 -3.088503e-02  5.938733e+03
4618.0492 -1.889426e-02  5.970030e+03
4618.3868  2.469972e-02  6.081622e+03
4618.7244  1.154201e-02  6.049038e+03
4619.0620 -2.596070e-02  5.954610e+03
4619.3996 -6.572588e-02  5.854440e+03
4619.7372 -8.505772e-02  5.806187e+03
4620.0748 -1.304820e-01  5.691649e+03
4620.4124 -9.330534e-02  5.786969e+03
4620.7500 -6.198599e-02  5.867413e+03
4621.0876 -4.916450e-02  5.900867e+03
4621.4252 -3.650155e-02  5.933924e+03
4621.7628 -4.597761e-02  5.910742e+03
4622.1004 -3.399327e-02  5.942085e+03
4622.4380 -3.860695e-02  5.931267e+03
4622.7756  2.084844e-02  6.083223e+03
4623.1132  4.656598e-02  6.149473e+03
4623.4508 -2.519838e-03  6.025687e+03
4623.7884 -5.487682e-03  6.019070e+03
4624.1261  3.351602e-02  6.119090e+03
4624.4637  2.292553e-02  6.093119e+03
4624.8013 -4.121887e-03  6.025343e+03
4625.1389  8.701354e-03  6.058866e+03
4625.4765  2.779309e-02  6.108320e+03
4625.8141  2.896857e-02  6.112262e+03
4626.1517  1.932270e-02  6.088717e+03
4626.4893  2.332105e-02  6.099841e+03
4626.8269  1.648635e-02  6.083448e+03
4627.1645 -1.467105e-02  6.005268e+03
4627.5021 -3.108368e-02  5.964553e+03
4627.8397 -1.857307e-02  5.997323e+03
4628.1773 -2.771973e-03  6.038458e+03
4628.5149 -6.348905e-03  6.030368e+03
4628.8525 -8.000676e-04  6.045467e+03
4629.1901 -3.253304e-02  5.965855e+03
4629.5277 -4.987502e-02  5.922810e+03
4629.8653 -2.674098e-02  5.982600e+03
4630.2029  9.386644e-03  6.075405e+03
4630.5405  1.661840e-02  6.094805e+03
4630.8781 -2.954806e-03  6.046110e+03
4631.2157  1.417950e-02  6.090677e+03
4631.5533  5.745484e-03  6.070291e+03
4631.8909  1.149789e-02  6.085951e+03
4632.2285  3.071352e-02  6.135820e+03
4632.5662  2.816770e-02  6.130407e+03
4632.9038  2.540828e-02  6.124457e+03
4633.2414  3.884229e-02  6.159650e+03
4633.5790  2.673386e-02  6.129957e+03
4633.9166  1.881607e-02  6.110915e+03
4634.2542 -3.082202e-03  6.056358e+03
4634.5918 -3.293270e-02  5.981604e+03
4634.9294 -6.681251e-02  5.896616e+03
4635.2670 -5.543874e-02  5.926602e+03
4635.6046 -8.115948e-03  6.047921e+03
4635.9422  3.176326e-02  6.150333e+03
4636.2798  3.466790e-03  6.079547e+03
4636.6174 -2.442835e-02  6.009784e+03
4636.9550 -3.115915e-03  6.065038e+03
4637.2926  1.108633e-02  6.102232e+03
4637.6302  2.791063e-02  6.146092e+03
4637.9678  1.866335e-02  6.123719e+03
4638.3054  2.435430e-02  6.139300e+03
4638.6430  4.013037e-02  6.180507e+03
4638.9806  1.884405e-02  6.127558e+03
4639.3182  3.143695e-02  6.160684e+03
4639.6558  3.383362e-02  6.167909e+03
4639.9934  5.555979e-02  6.224245e+03
4640.3310  5.375815e-02  6.220810e+03
4640.6686  5.927749e-02  6.235977e+03
4641.0063  8.983812e-02  6.314765e+03
4641.3439  7.020620e-02  6.266039e+03
4641.6815  5.795129e-03  6.103553e+03
4642.0191 -1.304571e-02  6.056842e+03
4642.3567  7.988579e-03  6.111438e+03
4642.6943  6.227093e-02  6.250503e+03
4643.0319  9.372500e-02  6.331575e+03
4643.3695  6.615804e-02  6.262704e+03
4643.7071  4.229225e-02  6.203237e+03
4644.0447  4.507086e-02  6.211463e+03
4644.3823  6.257930e-02  6.257112e+03
4644.7199  4.637044e-02  6.217103e+03
4645.0575  3.287043e-02  6.183977e+03
4645.3951  3.416402e-02  6.188436e+03
4645.7327  4.274696e-02  6.211415e+03
4646.0703  3.805089e-02  6.200659e+03
4646.4079  1.037768e-02  6.131530e+03
4646.7455 -5.509999e-03  6.092343e+03
4647.0831 -1.168818e-02  6.077824e+03
4647.4207 -5.126663e-03  6.095671e+03
4647.7583  1.014407e-02  6.135645e+03
4648.0959  2.649602e-02  6.178365e+03
4648.4335  2.438580e-02  6.174182e+03
4648.7711  1.351143e-01  6.456670e+03
4649.1087  4.202483e-01  7.182243e+03
4649.4463  4.083306e-01  7.153143e+03
4649.7840  8.871315e-02  6.342318e+03
4650.1216  8.165034e-03  6.138859e+03
4650.4592  3.350634e-02  6.204415e+03
4650.7968  2.632943e-02  6.187356e+03
4651.1344  1.511010e-02  6.160027e+03
4651.4720  3.166585e-02  6.203260e+03
4651.8096  1.833125e-02  6.170554e+03
4652.1472  4.384271e-02  6.236536e+03
4652.4848  7.335735e-03  6.144957e+03
4652.8224 -1.223712e-02  6.096397e+03
4653.1600 -8.844887e-03  6.106179e+03
4653.4976  2.789799e-02  6.200688e+03
4653.8352  1.414770e-02  6.166915e+03
4654.1728  1.755933e-02  6.176739e+03
4654.5104  4.505930e-02  6.247759e+03
4654.8480  6.947862e-05  6.134612e+03
4655.1856 -5.243829e-02  6.002363e+03
4655.5232 -1.694301e-02  6.093687e+03
4655.8608 -4.296422e-04  6.136782e+03
4656.1984  2.976306e-02  6.214627e+03
4656.5360  3.403148e-02  6.226607e+03
4656.8736  6.304791e-02  6.301457e+03
4657.2112  4.703651e-02  6.261908e+03
4657.5488 -1.499113e-02  6.105448e+03
4657.8864 -8.566760e-03  6.122890e+03
4658.2241 -1.389191e-02  6.110477e+03
4658.5617 -2.713873e-02  6.077934e+03
4658.8993 -4.598043e-02  6.031172e+03
4659.2369 -2.819058e-02  6.077469e+03
4659.5745  6.862746e-03  6.167620e+03
4659.9121 -4.366843e-03  6.140182e+03
4660.2497  1.960674e-02  6.202174e+03
4660.5873  6.557009e-02  6.320026e+03
4660.9249  5.564979e-02  6.295897e+03
4661.2625  3.124524e-02  6.234965e+03
4661.6001  3.214413e-02  6.238312e+03
4661.9377 -3.045184e-04  6.156931e+03
4662.2753 -4.048767e-02  6.055894e+03
4662.6129 -4.265919e-02  6.051420e+03
4662.9505  5.830542e-03  6.175646e+03
4663.2881  4.719005e-02  6.281751e+03
4663.6257 -1.984147e-03  6.157845e+03
4663.9633 -2.692265e-02  6.095502e+03
4664.3009 -3.607647e-03  6.155743e+03
4664.6385  2.169307e-02  6.221020e+03
4664.9761 -2.273830e-02  6.109132e+03
4665.3137 -4.561118e-02  6.052007e+03
4665.6513 -2.838860e-02  6.096737e+03
4665.9889 -3.550508e-02  6.079625e+03
4666.3265 -5.336810e-02  6.035202e+03
4666.6641 -2.774646e-02  6.101245e+03
4667.0018 -9.115708e-03  6.149519e+03
4667.3394 -3.203296e-02  6.092229e+03
4667.6770 -4.713074e-02  6.054795e+03
4668.0146  2.781815e-02  6.246119e+03
4668.3522  1.238960e-02  6.207826e+03
4668.6898 -1.795757e-02  6.131622e+03
4669.0274 -1.924735e-02  6.129229e+03
4669.3650 -2.759942e-02  6.108885e+03
4669.7026 -1.264389e-02  6.147744e+03
4670.0402 -1.923707e-02  6.131847e+03
4670.3778 -2.523660e-02  6.117447e+03
4670.7154 -3.531459e-03  6.173422e+03
4671.0530 -3.140158e-03  6.175237e+03
4671.3906 -1.792832e-02  6.138477e+03
4671.7282 -1.606978e-02  6.143997e+03
4672.0658  1.797108e-02  6.231266e+03
4672.4034 -1.563657e-02  6.146659e+03
4672.7410 -1.113195e-02  6.158867e+03
4673.0786  9.882789e-03  6.213007e+03
4673.4162  2.575589e-02  6.254072e+03
4673.7538 -8.438535e-03  6.167927e+03
4674.0914 -2.066487e-02  6.137580e+03
4674.4290 -1.829856e-02  6.144293e+03
4674.7666  1.053298e-02  6.218229e+03
4675.1042  1.341819e-02  6.226235e+03
4675.4419  1.771465e-03  6.197309e+03
4675.7795 -3.168963e-02  6.112949e+03
4676.1171 -5.903263e-02  6.044119e+03
4676.4547 -9.828105e-03  6.169748e+03
4676.7923  4.383098e-02  6.306679e+03
4677.1299  9.350911e-03  6.219676e+03
4677.4675  5.052084e-03  6.209335e+03
4677.8051  1.674359e-02  6.239604e+03
4678.1427 -1.389466e-04  6.197265e+03
4678.4803 -5.080789e-03  6.185248e+03
4678.8179 -3.242362e-02  6.116305e+03
4679.1555 -4.643279e-02  6.081222e+03
4679.4931 -9.402728e-02  5.960799e+03
4679.8307 -6.154264e-02  6.043805e+03
4680.1683 -5.211043e-04  6.199295e+03
4680.5059 -1.345961e-03  6.197647e+03
4680.8435  2.538848e-02  6.265999e+03
4681.1811  3.567309e-02  6.292543e+03
4681.5187 -1.087145e-02  6.174695e+03
4681.8563 -3.132145e-02  6.123125e+03
4682.1939 -8.882206e-03  6.180501e+03
4682.5315  3.603433e-03  6.212573e+03
4682.8691 -9.203625e-03  6.180372e+03
4683.2067 -3.921650e-02  6.104442e+03
4683.5443 -3.447040e-02  6.116803e+03
4683.8819 -2.818209e-03  6.197502e+03
4684.2196  5.180370e-01  7.521025e+03
4684.5572  1.000000e+00  8.745725e+03
4684.8948  3.704666e-01  7.146604e+03
4685.2324  1.664207e-03  6.209865e+03
4685.5700 -2.715277e-02  6.136855e+03
4685.9076  3.069824e-03  6.213821e+03
4686.2452 -2.724950e-02  6.136959e+03
4686.5828 -2.435202e-02  6.144469e+03
4686.9204 -9.058853e-03  6.183453e+03
4687.2580 -1.099234e-03  6.203788e+03
4687.5956  1.800669e-02  6.252423e+03
4687.9332 -4.729238e-03  6.194739e+03
4688.2708 -1.513563e-02  6.168360e+03
4688.6084 -8.159830e-03  6.186124e+03
4688.9460  7.361235e-03  6.225579e+03
4689.2836 -9.440920e-03  6.182897e+03
4689.6212 -3.679394e-02  6.113393e+03
4689.9588 -2.920736e-02  6.132635e+03
4690.2964 -4.455611e-02  6.093590e+03
4690.6340 -5.455452e-02  6.068120e+03
4690.9716 -3.820074e-02  6.109580e+03
4691.3092  4.691285e-03  6.218443e+03
4691.6468 -7.765929e-03  6.186670e+03
4691.9844 -7.901375e-03  6.186182e+03
4692.3220  1.226071e-02  6.237242e+03
4692.6597 -3.567186e-02  6.115286e+03
4692.9973 -2.378870e-02  6.145275e+03
4693.3349  8.917938e-05  6.205719e+03
4693.6725 -4.154423e-02  6.099709e+03
4694.0101 -3.615289e-02  6.113148e+03
4694.3477 -2.272543e-02  6.146985e+03
4694.6853 -1.623102e-02  6.163188e+03
4695.0229  2.646044e-02  6.271333e+03
4695.3605  4.969060e-02  6.330016e+03
4695.6981  4.010973e-02  6.305322e+03
4696.0357  2.292875e-02  6.261301e+03
4696.3733  4.971436e-02  6.328959e+03
4696.7109  6.008672e-02  6.354899e+03
4697.0485  1.281543e-02  6.234375e+03
4697.3861 -2.290270e-02  6.143182e+03
4697.7237  2.481378e-03  6.207202e+03
4698.0613  4.082434e-02  6.304126e+03
4698.3989  1.733244e-03  6.204306e+03
4698.7365 -1.454875e-02  6.162415e+03
4699.0741  2.273123e-02  6.256580e+03
4699.4117 -7.133482e-03  6.180143e+03
4699.7493  1.241175e-02  6.229214e+03
4700.0869  5.958922e-02  6.348467e+03
4700.4245  1.420254e-02  6.232538e+03
4700.7621 -4.005337e-02  6.094057e+03
4701.0997 -2.000503e-02  6.144330e+03
4701.4374 -1.817206e-02  6.148307e+03
4701.7750 -2.678397e-03  6.186970e+03
4702.1126 -3.886784e-03  6.183183e+03
4702.4502  5.509364e-03  6.206317e+03
4702.7878  1.861635e-02  6.238861e+03
4703.1254  1.160549e-04  6.191086e+03
4703.4630 -1.869323e-02  6.142507e+03
4703.8006 -4.292854e-02  6.080125e+03
4704.1382 -3.315864e-02  6.104116e+03
4704.4758 -2.732724e-02  6.118082e+03
4704.8134 -3.576114e-04  6.185732e+03
4705.1510  3.678716e-02  6.279215e+03
4705.4886  1.400018e-02  6.220420e+03
4705.8262  8.567168e-03  6.205695e+03
4706.1638  3.182790e-03  6.191076e+03
4706.5014 -6.492542e-04  6.180383e+03
4706.8390 -2.562104e-03  6.174547e+03
4707.1766 -1.569584e-02  6.140187e+03
4707.5142 -3.672075e-03  6.169723e+03
4707.8518 -3.168001e-02  6.097539e+03
4708.1894 -2.475603e-02  6.114083e+03
4708.5270 -5.408808e-03  6.162172e+03
4708.8646 -2.410305e-02  6.113598e+03
4709.2022 -2.528346e-02  6.109501e+03
4709.5398  6.916826e-03  6.190192e+03
4709.8775 -6.507401e-03  6.154956e+03
4710.2151 -1.897736e-02  6.122127e+03
4710.5527 -3.316903e-02  6.084908e+03
4710.8903 -4.017576e-02  6.065926e+03
4711.2279 -3.610812e-02  6.075063e+03
4711.5655 -3.360665e-03  6.157046e+03
4711.9031 -1.410759e-02  6.128514e+03
4712.2407 -4.935193e-02  6.037729e+03
4712.5783 -3.400576e-02  6.075456e+03
4712.9159 -3.297826e-02  6.076791e+03
4713.2535 -2.918023e-02  6.085148e+03
4713.5911 -3.440525e-02  6.070568e+03
4713.9287 -3.506266e-02  6.067577e+03
4714.2663 -2.278393e-02  6.097436e+03
4714.6039 -1.693594e-02  6.110942e+03
4714.9415  1.160715e-02  6.182093e+03
4715.2791 -2.491172e-02  6.087937e+03
4715.6167 -4.239889e-02  6.042117e+03
4715.9543 -2.264293e-02  6.090902e+03
4716.2919 -6.978703e-03  6.129278e+03
4716.6295 -1.138276e-02  6.116656e+03
4716.9671 -1.548666e-02  6.104784e+03
4717.3047 -1.994531e-02  6.091998e+03
4717.6423  6.215879e-03  6.156990e+03
4717.9799  2.162032e-03  6.145208e+03
4718.3175 -2.580541e-02  6.072659e+03
4718.6552 -5.216633e-03  6.123458e+03
4718.9928  1.328316e-02  6.168938e+03
4719.3304  1.440295e-02  6.170252e+03
4719.6680 -7.138298e-03  6.113983e+03
4720.0056 -1.943505e-02  6.081190e+03
4720.3432 -2.890538e-02  6.055566e+03
4720.6808 -1.173442e-02  6.097616e+03
4721.0184 -8.851129e-03  6.103356e+03
4721.3560 -1.596088e-03  6.120194e+03
4721.6936  2.734667e-02  6.192120e+03
4722.0312  3.503512e-02  6.210040e+03
4722.3688  2.431711e-02  6.181188e+03
4722.7064  2.150025e-03  6.123240e+03
4723.0440  3.211808e-02  6.197735e+03
4723.3816 -1.624499e-02  6.073218e+03
4723.7192 -2.032481e-03  6.107669e+03
4724.0568 -1.037975e-02  6.084799e+03
4724.3944 -1.580406e-02  6.069347e+03
4724.7320  3.714931e-03  6.117257e+03
4725.0696  1.180655e-02  6.136128e+03
4725.4072 -4.131789e-04  6.103392e+03
4725.7448  2.514949e-02  6.166636e+03
4726.0824  2.301026e-02  6.159497e+03
4726.4200 -1.830738e-02  6.052818e+03
4726.7576 -3.411622e-02  6.010939e+03
4727.0953 -4.387082e-02  5.984437e+03
4727.4329 -4.675350e-02  5.975388e+03
4727.7705 -3.839789e-02  5.994886e+03
4728.1081  8.131157e-03  6.111361e+03
4728.4457  2.254887e-02  6.146252e+03
4728.7833  2.162748e-02  6.142170e+03
4729.1209  7.583582e-02  6.278145e+03
4729.4585  9.064996e-02  6.314033e+03
4729.7961  6.532021e-02  6.247932e+03
4730.1337  2.208599e-02  6.136342e+03
4730.4713 -2.420935e-02  6.016973e+03
4730.8089  8.049426e-03  6.097172e+03
4731.1465  3.156321e-02  6.155153e+03
4731.4841  1.331718e-03  6.076591e+03
4731.8217 -6.803913e-04  6.069721e+03
4732.1593 -2.120085e-02  6.015829e+03
4732.4969 -5.900513e-02  5.918027e+03
4732.8345 -2.572577e-02  6.000817e+03
4733.1721 -2.322915e-02  6.005402e+03
4733.5097 -1.338205e-02  6.028663e+03
4733.8473  5.948030e-02  6.212018e+03
4734.1849  7.164864e-02  6.241179e+03
4734.5225  1.990876e-02  6.107981e+03
4734.8601  1.996490e-03  6.060726e+03
4735.1977  1.127096e-02  6.082542e+03
4735.5354  2.906520e-02  6.126006e+03
4735.8730  1.055749e-02  6.077248e+03
4736.2106 -4.016738e-02  5.946644e+03
4736.5482 -6.211055e-03  6.031180e+03
4736.8858  2.593514e-02  6.111122e+03
4737.2234  2.542634e-02  6.108107e+03
4737.5610  1.323750e-02  6.075424e+03
4737.8986 -2.135525e-02  5.985828e+03
4738.2362 -2.971173e-02  5.962893e+03
4738.5738 -2.274302e-02  5.978897e+03
4738.9114 -2.559019e-02  5.969971e+03
4739.2490  7.503835e-03  6.052362e+03
4739.5866 -1.175717e-02  6.001750e+03
4739.9242  2.104003e-03  6.035293e+03
4740.2618 -7.121579e-03  6.010191e+03
4740.5994 -2.146009e-02  5.972108e+03
4740.9370 -4.590357e-02  5.908362e+03
4741.2746 -1.101968e-02  5.995348e+03
4741.6122 -5.818877e-04  6.020236e+03
4741.9498 -4.853883e-03  6.007764e+03
4742.2874  1.790587e-02  6.063976e+03
4742.6250  1.554121e-04  6.017281e+03
4742.9626  2.333355e-02  6.074577e+03
4743.3002  5.835670e-02  6.161976e+03
4743.6378  4.834826e-02  6.134982e+03
4743.9754  3.246950e-02  6.093085e+03
4744.3131  1.063230e-02  6.036063e+03
4744.6507  1.822880e-02  6.053830e+03
4744.9883  1.707734e-01  6.439856e+03
4745.3259  6.296343e-01  7.604104e+03
4745.6635  5.955144e-01  7.515926e+03
4746.0011  2.492872e-02  6.064849e+03
4746.3387  3.471889e-02  6.088254e+03
4746.6763 -6.550889e-03  5.981953e+03
4747.0139 -3.905978e-02  5.897923e+03
4747.3515 -1.132690e-02  5.966954e+03
4747.6891  2.181090e-02  6.049731e+03
4748.0267  2.919074e-03  6.000340e+03
4748.3643  5.028179e-04  5.992821e+03
4748.7019  3.106453e-02  6.069100e+03
4749.0395  1.535968e-02  6.027852e+03
4749.3771  1.373975e-02  6.022403e+03
4749.7147  3.284557e-02  6.069625e+03
4750.0523  3.863112e-02  6.083023e+03
4750.3899  3.437571e-02  6.070928e+03
4750.7275  1.339258e-02  6.016353e+03
4751.0651  2.513284e-02  6.044930e+03
4751.4027  5.065589e-02  6.108541e+03
4751.7403  4.378217e-02  6.089863e+03
4752.0779  1.132899e-02  6.006218e+03
4752.4155  8.586557e-03  5.998073e+03
4752.7532 -1.687103e-02  5.932237e+03
4753.0908  2.408253e-02  6.035140e+03
4753.4284  1.556040e-02  6.012366e+03
4753.7660 -1.062165e-03  5.969032e+03
4754.1036  1.113499e-02  5.998935e+03
4754.4412 -8.601474e-03  5.947729e+03
4754.7788  1.526688e-02  6.007321e+03
4755.1164  1.916182e-02  6.016190e+03
4755.4540 -1.565081e-02  5.926741e+03
4755.7916 -1.431197e-02  5.929156e+03
4756.1292 -1.521782e-02  5.925889e+03
4756.4668 -1.311244e-02  5.930292e+03
4756.8044 -4.372986e-03  5.951569e+03
4757.1420 -3.830408e-02  5.864460e+03
4757.4796 -2.856103e-02  5.888329e+03
4757.8172  7.461818e-03  5.978982e+03
4758.1548  2.137337e-02  6.013482e+03
4758.4924  1.348667e-02  5.992624e+03
4758.8300  2.192314e-02  6.013256e+03
4759.1676  4.906984e-02  6.081444e+03
4759.5052  3.935369e-02  6.056001e+03
4759.8428  6.378256e-02  6.117326e+03
4760.1804  1.550345e-02  5.993955e+03
4760.5180  2.232366e-02  6.010587e+03
4760.8556  4.285132e-02  6.062065e+03
4761.1932  1.988394e-02  6.003064e+03
4761.5309  1.331165e-02  5.985736e+03
4761.8685 -2.376921e-02  5.890922e+03
4762.2061 -7.637760e-03  5.931317e+03
4762.5437 -1.375565e-02  5.915208e+03
4762.8813 -2.771069e-02  5.879210e+03
4763.2189 -3.543047e-02  5.859074e+03
4763.5565 -3.440261e-02  5.861184e+03
4763.8941 -2.695535e-02  5.879623e+03
4764.2317 -3.044374e-02  5.870301e+03
4764.5693  4.362792e-03  5.958291e+03
4764.9069  2.409844e-02  6.008013e+03
4765.2445 -8.277135e-03  5.925365e+03
4765.5821 -2.299931e-02  5.887588e+03
4765.9197 -6.315527e-02  5.785216e+03
4766.2573 -6.572358e-02  5.778357e+03
4766.5949 -2.097448e-02  5.891731e+03
4766.9325  1.439646e-02  5.981300e+03
4767.2701  2.422291e-02  6.005993e+03
4767.6077  1.268464e-02  5.976427e+03
4767.9453  4.092751e-03  5.954367e+03
4768.2829  1.108226e-02  5.971912e+03
4768.6205 -1.595480e-02  5.903031e+03
4768.9581  8.853195e-03  5.965883e+03
4769.2957 -4.031919e-03  5.932994e+03
4769.6333  1.259723e-03  5.946303e+03
4769.9710  7.412177e-02  6.131295e+03
4770.3086  8.072184e-02  6.147965e+03
4770.6462  4.771415e-02  6.064028e+03
4770.9838  1.540705e-02  5.981889e+03
4771.3214  1.239557e-02  5.974194e+03
4771.6590  1.061191e-02  5.969636e+03
4771.9966  1.555262e-02  5.982179e+03
4772.3342  8.054870e-02  6.147311e+03
4772.6718  8.972429e-02  6.170646e+03
4773.0094  4.884115e-02  6.066820e+03
4773.3470  4.411886e-02  6.054878e+03
4773.6846  3.280494e-02  6.026205e+03
4774.0222  5.121859e-02  6.073071e+03
4774.3598  3.392480e-02  6.029236e+03
4774.6974  1.335984e-02  5.977104e+03
4775.0350  2.103285e-02  5.996726e+03
4775.3726  2.129012e-02  5.997521e+03
4775.7102  2.088829e-02  5.996654e+03
4776.0478  1.168939e-02  5.973450e+03
4776.3854  1.927295e-02  5.992895e+03
4776.7230 -5.596227e-03  5.929904e+03
4777.0606  3.046981e-02  6.021732e+03
4777.3982  3.976827e-02  6.045566e+03
4777.7358  1.644048e-02  5.986522e+03
4778.0734  1.426724e-02  5.981232e+03
4778.4110  5.182235e-03  5.958391e+03
4778.7487 -8.722461e-03  5.923313e+03
4779.0863  1.109997e-02  5.973928e+03
4779.4239  1.177300e-03  5.948982e+03
4779.7615 -3.221871e-02  5.864407e+03
4780.0991  3.341842e-03  5.955025e+03
4780.4367 -2.949084e-02  5.871893e+03
4780.7743 -3.283100e-02  5.863692e+03
4781.1119 -2.456298e-05  5.947328e+03
4781.4495 -1.649788e-03  5.943491e+03
4781.7871 -2.131230e-02  5.893833e+03
4782.1247 -4.438805e-03  5.936998e+03
4782.4623 -1.608249e-02  5.907715e+03
4782.7999 -2.664704e-02  5.881175e+03
4783.1375 -1.544748e-02  5.909927e+03
4783.4751 -2.215101e-02  5.893194e+03
4783.8127 -1.019227e-02  5.923873e+03
4784.1503 -1.616274e-02  5.908999e+03
4784.4879 -3.048634e-02  5.872900e+03
4784.8255 -8.727670e-03  5.928466e+03
4785.1631 -5.123687e-03  5.937904e+03
4785.5007 -9.679699e-03  5.926606e+03
4785.8383 -6.333366e-02  5.790567e+03
4786.1759 -3.016784e-02  5.875089e+03
4786.5135  2.683283e-02  6.020157e+03
4786.8511 -9.761105e-04  5.949754e+03
4787.1888 -1.714664e-02  5.908909e+03
4787.5264 -1.835164e-03  5.948034e+03
4787.8640  4.614476e-03  5.964634e+03
4788.2016  2.675295e-02  6.021080e+03
4788.5392  3.059445e-02  6.031028e+03
4788.8768  8.300244e-03  5.974563e+03
4789.2144  4.109976e-02  6.058051e+03
4789.5520  1.233243e-02  5.985110e+03
4789.8896 -4.935475e-02  5.828517e+03
4790.2272 -2.400838e-02  5.893019e+03
4790.5648 -8.342911e-03  5.932906e+03
4790.9024  3.171913e-02  6.034754e+03
4791.2400  4.205523e-02  6.061062e+03
4791.5776  9.344488e-03  5.977984e+03
4791.9152 -2.674155e-02  5.886309e+03
4792.2528  1.984740e-03  5.959268e+03
4792.5904  2.701327e-02  6.022808e+03
4792.9280 -1.790698e-02  5.908613e+03
4793.2656 -5.365493e-02  5.817694e+03
4793.6032 -5.045460e-02  5.825697e+03
4793.9408  2.520798e-03  5.960125e+03
4794.2784  8.191303e-03  5.974344e+03
4794.6160  3.254565e-02  6.035998e+03
4794.9536  9.057044e-03  5.976072e+03
4795.2912 -5.891643e-02  5.803097e+03
4795.6288 -7.062683e-02  5.773025e+03
4795.9665 -1.980736e-02  5.901778e+03
4796.3041  2.590752e-03  5.958288e+03
4796.6417  8.528484e-03  5.972941e+03
4796.9793  1.522222e-02  5.989476e+03
4797.3169 -2.105268e-03  5.944943e+03
4797.6545 -2.522723e-02  5.885647e+03
4797.9921 -3.472739e-02  5.860916e+03
4798.3297 -2.764358e-02  5.878273e+03
4798.6673 -2.102635e-02  5.894399e+03
4799.0049 -9.249486e-03  5.923588e+03
4799.3425  1.750541e-02  5.990781e+03
4799.6801 -8.989758e-03  5.922642e+03
4800.0177 -1.077932e-02  5.917219e+03
4800.3553 -6.738758e-03  5.926556e+03
4800.6929 -4.292233e-02  5.833650e+03
4801.0305 -2.477038e-02  5.878733e+03
4801.3681  9.962223e-03  5.965885e+03
4801.7057 -1.189107e-02  5.909222e+03
4802.0433  3.472259e-02  6.026446e+03
4802.3809  4.993836e-02  6.063844e+03
4802.7185  3.404345e-02  6.022145e+03
4803.0561 -2.762393e-03  5.927260e+03
4803.3937 -4.741710e-02  5.812373e+03
4803.7313 -3.203740e-02  5.849943e+03
4804.0689 -3.334201e-02  5.845062e+03
4804.4066 -5.676616e-02  5.783921e+03
4804.7442 -3.086788e-02  5.848019e+03
4805.0818 -4.033818e-02  5.822193e+03
4805.4194 -2.671564e-02  5.854968e+03
4805.7570 -2.400018e-02  5.859962e+03
4806.0946 -6.917922e-02  5.743208e+03
4806.4322 -5.742067e-02  5.771034e+03
4806.7698 -4.008186e-02  5.812963e+03
4807.1074 -4.051892e-02  5.809657e+03
4807.4450 -5.498838e-02  5.770626e+03
4807.7826 -4.704640e-02  5.788455e+03
4808.1202 -5.129625e-02  5.775232e+03
4808.4578 -6.397811e-02  5.740509e+03
4808.7954 -5.201812e-02  5.768309e+03
4809.1330 -1.831107e-02  5.851276e+03
4809.4706 -8.005973e-04  5.893014e+03
4809.8082 -5.431576e-04  5.890835e+03
4810.1458 -4.028681e-02  5.786948e+03
4810.4834 -2.778772e-02  5.815700e+03
4810.8210 -1.926756e-02  5.834257e+03
4811.1586  1.853301e-02  5.927114e+03
4811.4962  7.688208e-03  5.896296e+03
4811.8338  2.766430e-02  5.943691e+03
4812.1714 -6.901882e-02  5.694617e+03
4812.5090  4.576860e-02  5.982701e+03
4812.8467  2.994882e-03  5.870402e+03
4813.1843 -2.589270e-02  5.793287e+03
4813.5219 -6.464494e-02  5.691016e+03
4813.8595 -4.009349e-02  5.749475e+03
4814.1971 -1.135435e-02  5.818477e+03
4814.5347  2.381345e-02  5.903713e+03
4814.8723  1.798652e-02  5.884702e+03
4815.2099 -4.013745e-02  5.732729e+03
4815.5475 -1.731282e-02  5.786310e+03
4815.8851  2.074302e-02  5.878485e+03
4816.2227  7.535254e-03  5.840322e+03
4816.5603  8.541448e-03  5.838167e+03
4816.8979  1.543943e-02  5.850877e+03
4817.2355  2.806767e-02  5.878042e+03
4817.5731 -2.944171e-02  5.726915e+03
4817.9107 -4.971134e-02  5.670291e+03
4818.2483  4.766345e-04  5.792562e+03
4818.5859 -2.139258e-03  5.780576e+03
4818.9235  1.020195e-03  5.783156e+03
4819.2611  6.637343e-03  5.791872e+03
4819.5987 -3.805090e-03  5.759679e+03
4819.9363  2.340586e-02  5.823038e+03
4820.2739  5.544519e-03  5.771780e+03
4820.6115 -3.029414e-02  5.674740e+03
4820.9491 -3.600989e-02  5.654118e+03
4821.2867 -3.006854e-02  5.663001e+03
4821.6244 -6.974501e-03  5.715351e+03
4821.9620 -3.826638e-02  5.629420e+03
4822.2996 -3.043525e-02  5.642771e+03
4822.6372 -1.169687e-02  5.683721e+03
4822.9748 -7.365850e-03  5.687956e+03
4823.3124 -3.410223e-02  5.613151e+03
4823.6500 -2.668161e-02  5.625012e+03
4823.9876 -9.310821e-03  5.662039e+03
4824.3252 -6.808663e-02  5.505500e+03
4824.6628 -9.628887e-02  5.426521e+03
4825.0004 -7.371870e-02  5.476420e+03
4825.3380 -6.901043e-02  5.480828e+03
4825.6756 -2.192878e-02  5.592775e+03
4826.0132  2.111553e-02  5.694353e+03
4826.3508  1.140214e-02  5.661785e+03
4826.6884  4.111382e-02  5.729267e+03
4827.0260  5.548180e-02  5.757656e+03
4827.3636  7.435061e-03  5.627367e+03
4827.7012  3.636675e-02  5.692534e+03
4828.0388  6.959324e-02  5.768502e+03
4828.3764  4.776970e-02  5.704503e+03
4828.7140  6.944906e-03  5.592121e+03
4829.0516  2.208791e-02  5.621819e+03
4829.3892  2.693127e-02  5.625242e+03
4829.7268  2.410090e-02  5.609062e+03
4830.0645  3.086646e-02  5.617153e+03
4830.4021  2.514149e-02  5.593406e+03
4830.7397  2.163595e-02  5.575192e+03
4831.0773  2.067584e-02  5.563341e+03
4831.4149  1.921412e-02  5.550111e+03
4831.7525  2.309566e-02  5.550354e+03
4832.0901  3.929907e-02  5.581799e+03
4832.4277  6.745567e-02  5.643512e+03
4832.7653  6.316453e-02  5.622690e+03
4833.1029  4.578141e-02  5.568509e+03
4833.4405  5.337807e-02  5.577694e+03
4833.7781  3.400847e-02  5.518274e+03
4834.1157  3.950170e-02  5.521925e+03
4834.4533  5.890742e-02  5.560828e+03
4834.7909  4.855721e-02  5.524044e+03
4835.1285  5.397298e-02  5.527224e+03
4835.4661  6.278669e-02  5.538949e+03
4835.8037  4.505953e-02  5.483159e+03
4836.1413  5.062892e-02  5.486470e+03
4836.4789  3.684994e-02  5.440542e+03
4836.8165  4.992803e-02  5.462766e+03
4837.1541  4.909136e-02  5.449559e+03
4837.4917  5.528024e-02  5.454123e+03
4837.8293  6.942272e-02  5.478819e+03
4838.1669  5.674169e-02  5.435295e+03
4838.5045  6.028718e-02  5.432925e+03
4838.8422  4.756241e-02  5.389151e+03
4839.1798  3.942241e-02  5.356959e+03
4839.5174  3.027988e-02  5.322156e+03
4839.8550  4.586059e-02  5.350102e+03
4840.1926  3.405256e-02  5.308406e+03
4840.5302  7.308466e-03  5.228709e+03
4840.8678  4.528416e-02  5.313381e+03
4841.2054  7.611407e-02  5.379849e+03
4841.5430  7.199884e-02  5.357488e+03
4841.8806  8.162824e-02  5.370001e+03
4842.2182  5.662658e-02  5.294491e+03
4842.5558  4.525246e-02  5.253562e+03
4842.8934  6.432162e-02  5.289939e+03
4843.2310  5.966245e-02  5.266001e+03
4843.5686  2.978509e-02  5.177965e+03
4843.9062  2.405166e-02  5.151241e+03
4844.2438  5.019460e-02  5.205477e+03
4844.5814  7.848813e-02  5.265156e+03
4844.9190  6.664012e-02  5.222838e+03
4845.2566  4.358251e-02  5.152029e+03
4845.5942  3.529567e-02  5.118737e+03
4845.9318  1.862317e-02  5.064135e+03
4846.2694  3.956635e-02  5.105095e+03
4846.6070  3.404852e-02  5.078833e+03
4846.9446  4.185556e-03  4.990726e+03
4847.2823 -2.394698e-02  4.907026e+03
4847.6199 -2.790067e-02  4.884767e+03
4847.9575  1.145384e-02  4.972553e+03
4848.2951  1.365792e-02  4.965979e+03
4848.6327 -4.853848e-02  4.795819e+03
4848.9703 -9.344999e-02  4.669603e+03
4849.3079 -6.896636e-02  4.719724e+03
4849.6455 -7.891600e-02  4.682405e+03
4849.9831 -9.849244e-02  4.620673e+03
4850.3207 -8.223066e-02  4.650038e+03
4850.6583 -8.073766e-02  4.641936e+03
4850.9959 -8.923168e-02  4.608520e+03
4851.3335 -1.197845e-01  4.519125e+03
4851.6711 -1.438994e-01  4.446153e+03
4852.0087 -1.371409e-01  4.451689e+03
4852.3463 -1.375019e-01  4.439215e+03
4852.6839 -1.728165e-01  4.338022e+03
4853.0215 -2.143617e-01  4.221087e+03
4853.3591 -2.333670e-01  4.161509e+03
4853.6967 -2.391789e-01  4.135546e+03
4854.0343 -2.270975e-01  4.155145e+03
4854.3719 -2.738476e-01  4.025387e+03
4854.7095 -3.263817e-01  3.881049e+03
4855.0471 -3.209962e-01  3.883976e+03
4855.3847 -3.202225e-01  3.875311e+03
4855.7223 -3.689371e-01  3.741047e+03
4856.0600 -4.338456e-01  3.565778e+03
4856.3976 -4.400755e-01  3.539723e+03
4856.7352 -4.454497e-01  3.515989e+03
4857.0728 -4.498012e-01  3.495004e+03
4857.4104 -4.923849e-01  3.377045e+03
4857.7480 -5.299225e-01  3.272069e+03
4858.0856 -5.468695e-01  3.219572e+03
4858.4232 -5.733228e-01  3.143098e+03
4858.7608 -5.900198e-01  3.091589e+03
4859.0984 -6.294439e-01  2.982526e+03
4859.4360 -7.050576e-01  2.781713e+03
4859.7736 -7.164438e-01  2.744270e+03
4860.1112 -7.526128e-01  2.644066e+03
4860.4488 -7.944037e-01  2.529789e+03
4860.7864 -8.277148e-01  2.437268e+03
4861.1240 -8.285627e-01  2.427440e+03
4861.4616 -8.795289e-01  2.290511e+03
4861.7992 -9.101390e-01  2.205528e+03
4862.1368 -9.236855e-01  2.164132e+03
4862.4744 -9.190557e-01  2.169157e+03
4862.8120 -8.849790e-01  2.249241e+03
4863.1496 -8.607829e-01  2.304476e+03
4863.4872 -8.148919e-01  2.415088e+03
4863.8248 -7.512634e-01  2.571027e+03
4864.1624 -6.940985e-01  2.710816e+03
4864.5001 -6.399890e-01  2.843119e+03
4864.8377 -6.253790e-01  2.875354e+03
4865.1753 -6.083646e-01  2.913983e+03
4865.5129 -5.888977e-01  2.959136e+03
4865.8505 -5.138499e-01  3.145793e+03
4866.1881 -4.641500e-01  3.268355e+03
4866.5257 -4.865456e-01  3.208063e+03
4866.8633 -4.538638e-01  3.288012e+03
4867.2009 -4.175821e-01  3.377424e+03
4867.5385 -3.541313e-01  3.536184e+03
4867.8761 -3.386773e-01  3.573334e+03
4868.2137 -3.192141e-01  3.621003e+03
4868.5513 -2.728185e-01  3.737432e+03
4868.8889 -2.673337e-01  3.750268e+03
4869.2265 -2.625325e-01  3.761713e+03
4869.5641 -1.937104e-01  3.936156e+03
4869.9017 -1.418715e-01  4.067809e+03
4870.2393 -1.397671e-01  4.073467e+03
4870.5769 -1.077161e-01  4.155569e+03
4870.9145 -8.175748e-02  4.222559e+03
4871.2521 -9.182420e-02  4.198396e+03
4871.5897 -5.181596e-02  4.301823e+03
4871.9273 -2.162818e-02  4.380677e+03
4872.2649 -3.120288e-02  4.358893e+03
4872.6025 -4.658863e-02  4.322728e+03
4872.9401 -3.761074e-02  4.348845e+03
4873.2778  1.613566e-02  4.489085e+03
4873.6154  4.147388e-02  4.557542e+03
4873.9530  1.482245e-02  4.494310e+03
4874.2906  1.925102e-02  4.510430e+03
4874.6282  3.839258e-02  4.564323e+03
4874.9658  5.732154e-02  4.618072e+03
4875.3034  7.807212e-02  4.676846e+03
4875.6410  9.742039e-02  4.732454e+03
4875.9786  1.004044e-01  4.746885e+03
4876.3162  8.681552e-02  4.719609e+03
4876.6538  6.875905e-02  4.681381e+03
4876.9914  7.859676e-02  4.714415e+03
4877.3290  9.611426e-02  4.767355e+03
4877.6666  1.166448e-01  4.828345e+03
4878.0042  1.202757e-01  4.846792e+03
4878.3418  1.612294e-01  4.960450e+03
4878.6794  1.588862e-01  4.964498e+03
4879.0170  1.501277e-01  4.952632e+03
4879.3546  1.190861e-01  4.884537e+03
4879.6922  1.489682e-01  4.971598e+03
4880.0298  1.685276e-01  5.032808e+03
4880.3674  1.555153e-01  5.011637e+03
4880.7050  1.308446e-01  4.961211e+03
4881.0426  1.395429e-01  4.995919e+03
4881.3802  1.840613e-01  5.121981e+03
4881.7179  1.816537e-01  5.129171e+03
4882.0555  1.697345e-01  5.112534e+03
4882.3931  1.665049e-01  5.118304e+03
4882.7307  1.262933e-01  5.030442e+03
4883.0683  1.002380e-01  4.978857e+03
4883.4059  1.070993e-01  5.011202e+03
4883.7435  9.574000e-02  4.997550e+03
4884.0811  5.455219e-02  4.908400e+03
4884.4187  4.822521e-02  4.908087e+03
4884.7563  3.632986e-02  4.893886e+03
4885.0939  6.143260e-02  4.973926e+03
4885.4315  8.708113e-02  5.055585e+03
4885.7691  7.107624e-02  5.031640e+03
4886.1067  7.094327e-02  5.048222e+03
4886.4443  9.392039e-02  5.123703e+03
4886.7819  7.838775e-02  5.101519e+03
4887.1195  4.300538e-02  5.029059e+03
4887.4571  6.085317e-02  5.091967e+03
4887.7947  7.687380e-02  5.150349e+03
4888.1323  8.517747e-02  5.189221e+03
4888.4699  6.859033e-02  5.164931e+03
4888.8075  6.236263e-02  5.167013e+03
4889.1451  7.593346e-02  5.219423e+03
4889.4827  6.732150e-02  5.215482e+03
4889.8203  5.244480e-02  5.195607e+03
4890.1580  4.341171e-02  5.190532e+03
4890.4956  4.154865e-02  5.203601e+03
4890.8332  4.636200e-02  5.233531e+03
4891.1708  4.749525e-02  5.253982e+03
4891.5084  1.590594e-02  5.191141e+03
4891.8460  4.207794e-03  5.178642e+03
4892.1836  1.039239e-02  5.211350e+03
4892.5212  2.706935e-02  5.270457e+03
4892.8588  3.623189e-03  5.227335e+03
4893.1964  1.437447e-02  5.270763e+03
4893.5340  2.183186e-02  5.305455e+03
4893.8716 -1.908082e-02  5.216854e+03
4894.2092 -1.389928e-02  5.244908e+03
4894.5468 -2.341752e-02  5.235127e+03
4894.8844 -1.036454e-02  5.282156e+03
4895.2220  2.751880e-02  5.391689e+03
4895.5596 -1.486647e-02  5.296671e+03
4895.8972 -3.120226e-03  5.338503e+03
4896.2348 -2.264740e-02  5.300161e+03
4896.5724 -5.476135e-02  5.229067e+03
4896.9100 -1.281954e-02  5.345288e+03
4897.2476 -1.795163e-02  5.341033e+03
4897.5852 -6.425536e-02  5.231242e+03
4897.9228 -7.679779e-02  5.206227e+03
4898.2604 -5.892561e-02  5.257424e+03
4898.5980 -5.788388e-02  5.264744e+03
4898.9357 -4.919515e-02  5.290310e+03
4899.2733 -3.542705e-02  5.327531e+03
4899.6109 -2.445869e-02  5.356324e+03
4899.9485 -7.332303e-02  5.231724e+03
4900.2861 -8.999652e-02  5.187449e+03
4900.6237 -5.753546e-02  5.266470e+03
4900.9613 -3.252981e-02  5.324943e+03
4901.2989 -5.485127e-02  5.261494e+03
4901.6365 -7.619064e-02  5.198773e+03
4901.9741 -1.005547e-01  5.126519e+03
4902.3117 -6.662127e-02  5.200437e+03
4902.6493 -5.510853e-02  5.215372e+03
4902.9869 -2.429966e-02  5.277217e+03
4903.3245 -2.189121e-02  5.264705e+03
4903.6621 -8.667743e-03  5.277369e+03
4903.9997 -1.449299e-02  5.239240e+03
4904.3373 -1.811632e-02  5.204208e+03
4904.6749  2.899811e-02  5.295475e+03
4905.0125  5.770073e-02  5.337258e+03
4905.3501  4.841787e-02  5.279722e+03
4905.6877  5.735827e-02  5.265555e+03
4906.0253  4.443250e-02  5.192794e+03
4906.3629  5.748824e-02  5.182880e+03
4906.7005  8.660587e-02  5.210491e+03
4907.0381  1.137421e-01  5.229665e+03
4907.3758  1.493925e-01  5.266937e+03
4907.7134  1.722434e-01  5.268031e+03
4908.0510  1.614873e-01  5.179950e+03
4908.3886  2.014166e-01  5.216706e+03
4908.7262  2.285492e-01  5.216879e+03
4909.0638  2.344255e-01  5.158834e+03
4909.4014  2.853653e-01  5.210912e+03
4909.7390  3.290997e-01  5.240170e+03
4910.0766  3.653924e-01  5.245854e+03
4910.4142  3.796979e-01  5.190851e+03
4910.7518  4.114678e-01  5.175227e+03
4911.0894  4.867220e-01  5.264921e+03
4911.4270  5.482253e-01  5.314355e+03
4911.7646  5.653787e-01  5.245616e+03
4912.1022  5.992416e-01  5.213649e+03
4912.4398  6.603857e-01  5.245130e+03
4912.7774  7.566496e-01  5.359786e+03
4913.1150  8.329876e-01  5.417579e+03
4913.4526  5.900159e-01  4.657717e+03
4913.7902 -7.345378e-01  1.143415e+03
4914.1278 -1.204037e+00 -2.054263e+02
4914.4654 -1.120125e+00 -1.553568e+02
4914.8030 -1.011012e+00 -4.852676e+01
4915.1406 -9.219020e-01  0.000000e+00
4915.4782 -8.488581e-01  0.000000e+00
4915.8158 -7.726892e-01  0.000000e+00
4916.1535 -6.933029e-01  0.000000e+00
4916.4911 -6.106049e-01  0.000000e+00
4916.8287 -5.244986e-01  0.000000e+00
4917.1663 -4.348852e-01  0.000000e+00
4917.5039 -3.416639e-01  0.000000e+00
