# Wavelength Flux(Normalised) Flux(Original)
3846.7073  1.520330e-01  1.307748e+03
3847.0449  1.303036e-01  1.304015e+03
3847.3826  1.146055e-01  1.313360e+03
3847.7203  9.803081e-02  1.317623e+03
3848.0579  7.667615e-02  1.306584e+03
3848.3956  7.778692e-02  1.352371e+03
3848.7333  6.386076e-02  1.355931e+03
3849.0710  5.337613e-02  1.366209e+03
3849.4086  4.402313e-02  1.377187e+03
3849.7463  3.120769e-02  1.376807e+03
3850.0840  3.971460e-02  1.430679e+03
3850.4216  5.895121e-02  1.510882e+03
3850.7593  5.237566e-02  1.520886e+03
3851.0970  1.699617e-02  1.452860e+03
3851.4347 -1.284126e-02  1.397684e+03
3851.7723 -3.805986e-02  1.352990e+03
3852.1100 -3.332650e-02  1.385825e+03
3852.4477 -1.062716e-02  1.464572e+03
3852.7853 -1.372275e-02  1.473602e+03
3853.1230 -1.690653e-02  1.480945e+03
3853.4607 -3.075975e-02  1.458690e+03
3853.7984 -3.722816e-02  1.454630e+03
3854.1360 -3.786379e-02  1.464723e+03
3854.4737 -3.336221e-02  1.487188e+03
3854.8114 -3.040313e-02  1.504421e+03
3855.1490 -3.865663e-02  1.490912e+03
3855.4867 -4.766607e-02  1.474359e+03
3855.8244 -4.785026e-02  1.480145e+03
3856.1620 -3.776122e-02  1.512148e+03
3856.4997 -3.962910e-02  1.511644e+03
3856.8374 -5.496919e-02  1.474674e+03
3857.1751 -4.578340e-02  1.501743e+03
3857.5127 -2.421114e-02  1.560801e+03
3857.8504 -2.320560e-02  1.564768e+03
3858.1881 -3.036299e-02  1.546479e+03
3858.5257 -1.608810e-02  1.584218e+03
3858.8634  2.672685e-03  1.633221e+03
3859.2011 -9.108043e-03  1.600918e+03
3859.5388 -3.515019e-03  1.614025e+03
3859.8764 -1.295489e-02  1.586899e+03
3860.2141 -2.938331e-02  1.540842e+03
3860.5518 -2.597871e-02  1.546797e+03
3860.8894 -1.392872e-02  1.575218e+03
3861.2271 -1.654903e-02  1.564492e+03
3861.5648 -6.086280e-03  1.588022e+03
3861.9025 -8.506278e-03  1.577190e+03
3862.2401 -1.887305e-02  1.545070e+03
3862.5778 -4.024041e-03  1.579365e+03
3862.9155  1.591320e-02  1.626885e+03
3863.2531  2.867812e-02  1.655241e+03
3863.5908  2.830318e-02  1.648679e+03
3863.9285  2.742536e-02  1.640630e+03
3864.2661  1.914445e-02  1.612873e+03
3864.6038  7.346228e-03  1.575702e+03
3864.9415  2.436936e-02  1.614633e+03
3865.2792  3.402097e-02  1.633998e+03
3865.6168  2.299867e-02  1.598646e+03
3865.9545  4.056776e-02  1.638842e+03
3866.2922  5.517126e-02  1.671173e+03
3866.6298  6.029911e-02  1.678442e+03
3866.9675  6.050669e-02  1.672708e+03
3867.3052  5.517968e-02  1.652361e+03
3867.6429  4.237543e-02  1.612280e+03
3867.9805  4.618490e-02  1.616167e+03
3868.3182  6.642088e-02  1.663542e+03
3868.6559  7.299895e-02  1.674878e+03
3868.9935  5.477683e-02  1.620728e+03
3869.3312  6.604684e-02  1.644642e+03
3869.6689  8.582678e-02  1.691156e+03
3870.0065  1.050010e-01  1.736180e+03
3870.3442  9.002980e-02  1.691050e+03
3870.6819  6.854017e-02  1.628815e+03
3871.0196  5.824086e-02  1.596301e+03
3871.3572  4.866173e-02  1.565835e+03
3871.6949  5.483448e-02  1.577164e+03
3872.0326  7.340100e-02  1.621417e+03
3872.3702  7.000167e-02  1.607759e+03
3872.7079  7.358889e-02  1.612741e+03
3873.0456  6.683029e-02  1.590545e+03
3873.3833  6.840792e-02  1.590566e+03
3873.7209  8.319911e-02  1.625703e+03
3874.0586  6.009793e-02  1.560848e+03
3874.3963  2.076796e-02  1.453277e+03
3874.7339  3.639015e-02  1.491183e+03
3875.0716  5.558775e-02  1.538737e+03
3875.4093  5.020510e-02  1.521505e+03
3875.7470  4.203421e-02  1.497104e+03
3876.0846  2.225838e-02  1.442224e+03
3876.4223  3.931665e-02  1.484931e+03
3876.7600  6.440549e-02  1.549076e+03
3877.0976  5.385491e-02  1.519205e+03
3877.4353  2.959086e-02  1.453287e+03
3877.7730  2.602209e-02  1.442292e+03
3878.1106  3.317998e-02  1.459865e+03
3878.4483  2.863802e-02  1.446716e+03
3878.7860  2.961013e-02  1.448354e+03
3879.1237  4.231972e-02  1.481233e+03
3879.4613  2.944339e-02  1.446677e+03
3879.7990  8.878184e-03  1.392000e+03
3880.1367  1.281141e-02  1.402299e+03
3880.4743  8.024189e-03  1.389750e+03
3880.8120 -1.172994e-02  1.337835e+03
3881.1497 -3.913511e-02  1.265895e+03
3881.4874 -5.421145e-02  1.226752e+03
3881.8250 -5.457623e-02  1.226704e+03
3882.1627 -6.518178e-02  1.199778e+03
3882.5004 -8.193294e-02  1.156801e+03
3882.8380 -8.912603e-02  1.139288e+03
3883.1757 -8.638094e-02  1.148240e+03
3883.5134 -9.986708e-02  1.114469e+03
3883.8510 -1.169870e-01  1.071279e+03
3884.1887 -1.653582e-01  9.456497e+02
3884.5264 -1.994428e-01  8.579731e+02
3884.8641 -1.887030e-01  8.889817e+02
3885.2017 -1.742599e-01  9.299568e+02
3885.5394 -1.833129e-01  9.089855e+02
3885.8771 -2.097094e-01  8.423313e+02
3886.2147 -2.320792e-01  7.864896e+02
3886.5524 -2.379900e-01  7.743254e+02
3886.8901 -2.612759e-01  7.163851e+02
3887.2278 -2.925253e-01  6.375481e+02
3887.5654 -2.995119e-01  6.230104e+02
3887.9031 -2.988414e-01  6.288666e+02
3888.2408 -3.239803e-01  5.666348e+02
3888.5784 -3.392547e-01  5.306260e+02
3888.9161 -3.479330e-01  5.121958e+02
3889.2538 -3.501196e-01  5.110646e+02
3889.5915 -3.307565e-01  5.670389e+02
3889.9291 -3.083673e-01  6.311428e+02
3890.2668 -3.129886e-01  6.239618e+02
3890.6045 -3.220422e-01  6.051847e+02
3890.9421 -2.850434e-01  7.082791e+02
3891.2798 -2.547157e-01  7.938511e+02
3891.6175 -2.539504e-01  8.013771e+02
3891.9551 -2.305345e-01  8.688938e+02
3892.2928 -2.120513e-01  9.234730e+02
3892.6305 -1.880937e-01  9.926257e+02
3892.9682 -1.903253e-01  9.926355e+02
3893.3058 -1.884705e-01  1.003542e+03
3893.6435 -1.778399e-01  1.037739e+03
3893.9812 -1.403399e-01  1.143059e+03
3894.3188 -1.324474e-01  1.170184e+03
3894.6565 -1.472398e-01  1.137413e+03
3894.9942 -1.364123e-01  1.172451e+03
3895.3319 -1.005601e-01  1.273721e+03
3895.6695 -9.075873e-02  1.306185e+03
3896.0072 -8.279092e-02  1.333865e+03
3896.3449 -7.188452e-02  1.369376e+03
3896.6825 -6.872147e-02  1.384472e+03
3897.0202 -6.646544e-02  1.397224e+03
3897.3579 -4.305361e-02  1.465958e+03
3897.6955 -3.161441e-02  1.503086e+03
3898.0332 -4.021750e-02  1.487270e+03
3898.3709 -4.317701e-02  1.486416e+03
3898.7086 -2.807398e-02  1.533352e+03
3899.0462 -2.597607e-02  1.545940e+03
3899.3839 -2.296325e-02  1.560978e+03
3899.7216  4.488985e-03  1.640657e+03
3900.0592  6.422437e-03  1.652895e+03
3900.3969  3.922432e-03  1.653433e+03
3900.7346  1.331165e-02  1.685422e+03
3901.0723  3.545603e-03  1.666786e+03
3901.4099  1.510491e-02  1.704542e+03
3901.7476  2.516302e-02  1.738339e+03
3902.0853  1.303174e-02  1.713480e+03
3902.4229  1.943268e-02  1.737622e+03
3902.7606  3.161063e-02  1.777038e+03
3903.0983  3.278609e-02  1.787366e+03
3903.4360  4.518265e-02  1.827357e+03
3903.7736  4.741876e-02  1.840480e+03
3904.1113  5.390843e-02  1.864841e+03
3904.4490  6.850063e-02  1.910612e+03
3904.7866  6.258539e-02  1.902153e+03
3905.1243  4.409617e-02  1.860436e+03
3905.4620  5.356161e-02  1.892608e+03
3905.7996  7.084697e-02  1.945434e+03
3906.1373  6.220560e-02  1.929693e+03
3906.4750  3.500945e-02  1.864873e+03
3906.8127  3.464529e-02  1.870965e+03
3907.1503  4.652094e-02  1.909389e+03
3907.4880  6.077055e-02  1.954059e+03
3907.8257  1.702777e-02  1.845377e+03
3908.1633 -4.357743e-02  1.692080e+03
3908.5010 -2.225977e-02  1.755335e+03
3908.8387  2.506327e-02  1.887305e+03
3909.1764  5.076908e-02  1.962085e+03
3909.5140  8.220273e-02  2.051967e+03
3909.8517  7.586338e-02  2.041943e+03
3910.1894  7.080343e-02  2.035258e+03
3910.5270  7.000146e-02  2.039784e+03
3910.8647  6.469099e-02  2.032344e+03
3911.2024  7.075723e-02  2.054934e+03
3911.5400  7.107496e-02  2.062276e+03
3911.8777  7.222878e-02  2.071778e+03
3912.2154  7.023520e-02  2.072907e+03
3912.5531  5.416337e-02  2.036762e+03
3912.8907  2.165984e-02  1.957122e+03
3913.2284  3.912145e-02  2.009524e+03
3913.5661  3.979127e-02  2.017475e+03
3913.9037  3.408662e-02  2.008516e+03
3914.2414  3.281458e-02  2.011218e+03
3914.5791  3.463413e-02  2.022034e+03
3914.9168  3.177500e-02  2.020421e+03
3915.2544  3.390275e-02  2.031931e+03
3915.5921  4.802856e-02  2.075100e+03
3915.9298  4.521510e-02  2.073423e+03
3916.2674  3.489414e-02  2.051835e+03
3916.6051  4.214147e-02  2.076630e+03
3916.9428  6.621917e-02  2.145858e+03
3917.2805  5.078733e-02  2.110566e+03
3917.6181  2.875100e-02  2.057748e+03
3917.9558  1.586214e-02  2.029048e+03
3918.2935  1.865141e-02  2.041733e+03
3918.6311  3.473628e-02  2.089502e+03
3918.9688  5.045398e-02  2.136234e+03
3919.3065  4.841724e-02  2.135960e+03
3919.6441  3.933265e-02  2.116987e+03
3919.9818  3.739018e-02  2.116828e+03
3920.3195  1.606929e-02  2.065370e+03
3920.6572  1.038945e-02  2.055196e+03
3920.9948  3.591067e-02  2.127444e+03
3921.3325  2.705438e-02  2.108738e+03
3921.6702  2.746941e-02  2.114475e+03
3922.0078  5.743788e-02  2.198279e+03
3922.3455  6.586554e-02  2.225065e+03
3922.6832  3.586157e-02  2.150179e+03
3923.0209  2.821727e-02  2.134341e+03
3923.3585  4.441348e-02  2.181465e+03
3923.6962  6.356473e-02  2.236335e+03
3924.0339  7.038926e-02  2.258549e+03
3924.3715  5.388605e-02  2.219023e+03
3924.7092  4.034540e-02  2.187264e+03
3925.0469  4.350338e-02  2.199587e+03
3925.3845  3.296248e-02  2.175627e+03
3925.7222  2.127237e-02  2.148565e+03
3926.0599  2.680607e-02  2.166975e+03
3926.3976  3.300491e-02  2.187079e+03
3926.7352  2.853404e-02  2.178911e+03
3927.0729  3.982953e-02  2.212364e+03
3927.4106  2.968698e-02  2.189076e+03
3927.7482  1.842664e-02  2.162771e+03
3928.0859  5.242620e-02  2.256063e+03
3928.4236  7.225313e-02  2.311824e+03
3928.7613  5.675315e-02  2.274128e+03
3929.0989  4.300289e-02  2.240999e+03
3929.4366  3.891575e-02  2.233358e+03
3929.7743  3.998118e-02  2.239281e+03
3930.1119  1.702270e-02  2.181633e+03
3930.4496 -2.596461e-03  2.132756e+03
3930.7873 -8.077435e-03  2.121202e+03
3931.1250 -9.225293e-03  2.121049e+03
3931.4626 -9.225568e-03  2.123875e+03
3931.8003 -1.170835e-02  2.120083e+03
3932.1380 -3.273305e-02  2.067219e+03
3932.4756 -5.016039e-02  2.023812e+03
3932.8133 -5.999884e-02  2.000418e+03
3933.1510 -7.529061e-02  1.962556e+03
3933.4886 -7.613443e-02  1.962842e+03
3933.8263 -8.061658e-02  1.953460e+03
3934.1640 -7.788778e-02  1.963095e+03
3934.5017 -7.231890e-02  1.980191e+03
3934.8393 -6.273425e-02  2.007858e+03
3935.1770 -2.455038e-02  2.111091e+03
3935.5147  3.796377e-03  2.188272e+03
3935.8523  1.592926e-02  2.222544e+03
3936.1900  1.553293e-02  2.223648e+03
3936.5277  1.576697e-02  2.226378e+03
3936.8654  5.966229e-03  2.202538e+03
3937.2030  1.059069e-02  2.216796e+03
3937.5407  2.929120e-02  2.268229e+03
3937.8784  3.582100e-02  2.287448e+03
3938.2160  2.990527e-02  2.273727e+03
3938.5537  2.173949e-02  2.254022e+03
3938.8914  1.219190e-02  2.230629e+03
3939.2291  1.223534e-02  2.232560e+03
3939.5667  1.783774e-02  2.249154e+03
3939.9044  1.662483e-02  2.247699e+03
3940.2421  1.257397e-02  2.238711e+03
3940.5797  3.903413e-02  2.310358e+03
3940.9174  5.699170e-02  2.359497e+03
3941.2551  4.576618e-02  2.331455e+03
3941.5927  4.415782e-02  2.328812e+03
3941.9304  3.803538e-02  2.314209e+03
3942.2681  2.135739e-02  2.271676e+03
3942.6058  1.279204e-02  2.250567e+03
3942.9434  6.064311e-03  2.234294e+03
3943.2811  1.204686e-02  2.251603e+03
3943.6188  1.893580e-02  2.271288e+03
3943.9564  1.378168e-03  2.226322e+03
3944.2941 -9.803518e-04  2.221521e+03
3944.6318 -2.416258e-03  2.219142e+03
3944.9695  3.908841e-03  2.237265e+03
3945.3071  2.955289e-02  2.306448e+03
3945.6448  3.852316e-02  2.331535e+03
3945.9825  3.370902e-02  2.320165e+03
3946.3201  4.529563e-02  2.352143e+03
3946.6578  4.785709e-02  2.360249e+03
3946.9955  3.523234e-02  2.328195e+03
3947.3331  4.275515e-02  2.349398e+03
3947.6708  4.079081e-02  2.345510e+03
3948.0085  3.502379e-02  2.331562e+03
3948.3462  3.927673e-02  2.344097e+03
3948.6838  5.091540e-02  2.376153e+03
3949.0215  4.666916e-02  2.366208e+03
3949.3592  3.073461e-02  2.325358e+03
3949.6968  2.667187e-02  2.315891e+03
3950.0345  7.319345e-03  2.266000e+03
3950.3722 -2.305195e-03  2.241826e+03
3950.7099 -8.684131e-03  2.226232e+03
3951.0475  1.143425e-03  2.253487e+03
3951.3852 -3.571330e-03  2.242295e+03
3951.7229 -1.981875e-02  2.200617e+03
3952.0605  3.621023e-03  2.263866e+03
3952.3982  1.225045e-02  2.287964e+03
3952.7359 -9.650438e-03  2.231352e+03
3953.0736 -1.450551e-02  2.219810e+03
3953.4112 -4.516666e-03  2.247520e+03
3953.7489  1.876883e-02  2.310391e+03
3954.0866  3.413412e-02  2.352331e+03
3954.4242  2.866191e-02  2.339189e+03
3954.7619 -1.587885e-03  2.260551e+03
3955.0996 -2.210182e-02  2.207663e+03
3955.4372 -6.298298e-03  2.250802e+03
3955.7749  7.005309e-03  2.287344e+03
3956.1126 -1.242428e-02  2.237359e+03
3956.4503 -3.801764e-02  2.171091e+03
3956.7879 -3.738663e-02  2.174170e+03
3957.1256 -4.840612e-02  2.146462e+03
3957.4633 -8.312495e-02  2.056114e+03
3957.8009 -9.617295e-02  2.023075e+03
3958.1386 -7.787322e-02  2.072930e+03
3958.4763 -8.758551e-02  2.048745e+03
3958.8140 -1.015323e-01  2.013383e+03
3959.1516 -1.071496e-01  2.000061e+03
3959.4893 -1.082302e-01  1.998753e+03
3959.8270 -1.001411e-01  2.021707e+03
3960.1646 -1.054794e-01  2.009183e+03
3960.5023 -1.141973e-01  1.987745e+03
3960.8400 -1.370989e-01  1.928831e+03
3961.1776 -1.611306e-01  1.866950e+03
3961.5153 -1.734631e-01  1.836023e+03
3961.8530 -1.824647e-01  1.813925e+03
3962.1907 -1.845278e-01  1.810196e+03
3962.5283 -2.250157e-01  1.704903e+03
3962.8660 -2.491189e-01  1.642953e+03
3963.2037 -2.493601e-01  1.644114e+03
3963.5413 -2.572052e-01  1.625198e+03
3963.8790 -2.656983e-01  1.604595e+03
3964.2167 -2.785818e-01  1.572411e+03
3964.5544 -2.983116e-01  1.522154e+03
3964.8920 -3.120092e-01  1.487873e+03
3965.2297 -3.270356e-01  1.450106e+03
3965.5674 -3.648083e-01  1.352230e+03
3965.9050 -3.917272e-01  1.283079e+03
3966.2427 -4.015488e-01  1.259158e+03
3966.5804 -4.247293e-01  1.199948e+03
3966.9181 -4.725743e-01  1.075560e+03
3967.2557 -4.813222e-01  1.054566e+03
3967.5934 -4.925514e-01  1.027042e+03
3967.9311 -5.284585e-01  9.343057e+02
3968.2687 -5.702409e-01  8.260667e+02
3968.6064 -5.988638e-01  7.526494e+02
3968.9441 -6.008020e-01  7.498124e+02
3969.2817 -5.955173e-01  7.661023e+02
3969.6194 -6.088208e-01  7.332808e+02
3969.9571 -6.134777e-01  7.233506e+02
3970.2948 -5.974934e-01  7.680237e+02
3970.6324 -5.809869e-01  8.141096e+02
3970.9701 -5.803804e-01  8.181909e+02
3971.3078 -5.702351e-01  8.475238e+02
3971.6454 -5.390661e-01  9.324714e+02
3971.9831 -5.309594e-01  9.564799e+02
3972.3208 -5.232806e-01  9.793899e+02
3972.6585 -4.926673e-01  1.062967e+03
3972.9961 -4.860409e-01  1.083160e+03
3973.3338 -4.557991e-01  1.165821e+03
3973.6715 -4.034958e-01  1.306842e+03
3974.0091 -3.743857e-01  1.386577e+03
3974.3468 -3.487939e-01  1.457043e+03
3974.6845 -3.375969e-01  1.489487e+03
3975.0221 -3.405457e-01  1.484564e+03
3975.3598 -3.212014e-01  1.538614e+03
3975.6975 -2.800483e-01  1.650354e+03
3976.0352 -2.750036e-01  1.666665e+03
3976.3728 -2.886017e-01  1.633721e+03
3976.7105 -2.781042e-01  1.664514e+03
3977.0482 -2.550907e-01  1.728430e+03
3977.3858 -2.350983e-01  1.784392e+03
3977.7235 -2.092844e-01  1.855778e+03
3978.0612 -1.724442e-01  1.956348e+03
3978.3989 -1.517933e-01  2.014149e+03
3978.7365 -1.462021e-01  2.032169e+03
3979.0742 -1.528460e-01  2.017874e+03
3979.4119 -1.484521e-01  2.032792e+03
3979.7495 -1.339251e-01  2.074533e+03
3980.0872 -1.242196e-01  2.103560e+03
3980.4249 -1.310815e-01  2.088817e+03
3980.7626 -1.331998e-01  2.086647e+03
3981.1002 -1.151734e-01  2.137768e+03
3981.4379 -9.649767e-02  2.190636e+03
3981.7756 -8.654354e-02  2.220478e+03
3982.1132 -9.892632e-02  2.191297e+03
3982.4509 -8.557998e-02  2.230169e+03
3982.7886 -7.060758e-02  2.273371e+03
3983.1262 -5.874745e-02  2.308375e+03
3983.4639 -5.061800e-02  2.333545e+03
3983.8016 -5.417613e-02  2.327847e+03
3984.1393 -6.686175e-02  2.298046e+03
3984.4769 -6.250188e-02  2.313340e+03
3984.8146 -3.100573e-02  2.400406e+03
3985.1523 -3.046992e-02  2.405648e+03
3985.4899 -1.543204e-02  2.449259e+03
3985.8276 -1.886686e-02  2.444061e+03
3986.1653 -1.304854e-02  2.463353e+03
3986.5030  1.005232e-02  2.528365e+03
3986.8406  4.763744e-03  2.518349e+03
3987.1783 -1.956164e-03  2.504575e+03
3987.5160  5.153514e-03  2.527391e+03
3987.8536 -2.624076e-03  2.510874e+03
3988.1913 -4.477639e-03  2.510045e+03
3988.5290  1.607934e-02  2.568491e+03
3988.8666  3.806270e-02  2.630733e+03
3989.2043  3.001293e-02  2.613599e+03
3989.5420  5.625693e-04  2.539910e+03
3989.8797  8.258278e-03  2.564453e+03
3990.2173  2.524497e-03  2.553514e+03
3990.5550 -1.405308e-02  2.513930e+03
3990.8927  1.712361e-03  2.559878e+03
3991.2303  2.412198e-02  2.623415e+03
3991.5680  1.765002e-02  2.610616e+03
3991.9057  3.936959e-02  2.672373e+03
3992.2434  4.627023e-02  2.694972e+03
3992.5810  3.962199e-02  2.681772e+03
3992.9187  3.726420e-02  2.679937e+03
3993.2564  3.618601e-02  2.681504e+03
3993.5940  2.776092e-02  2.663667e+03
3993.9317  1.985095e-02  2.647212e+03
3994.2694  2.388816e-02  2.662362e+03
3994.6071  2.189119e-02  2.661578e+03
3994.9447  4.206936e-02  2.719438e+03
3995.2824  5.127914e-02  2.748317e+03
3995.6201  2.450931e-02  2.682092e+03
3995.9577  1.206094e-02  2.653746e+03
3996.2954 -5.486720e-03  2.611935e+03
3996.6331  6.983602e-03  2.649501e+03
3996.9707  5.061466e-02  2.769466e+03
3997.3084  5.477920e-02  2.785104e+03
3997.6461  1.724837e-02  2.690522e+03
3997.9838  1.613709e-02  2.692241e+03
3998.3214  2.651126e-02  2.724339e+03
3998.6591  1.634250e-02  2.702138e+03
3998.9968  1.931436e-02  2.714692e+03
3999.3344  2.692604e-02  2.739524e+03
3999.6721  4.197621e-02  2.784035e+03
4000.0098  3.728958e-02  2.776376e+03
4000.3475  2.342161e-02  2.744455e+03
4000.6851  4.962275e-02  2.818479e+03
4001.0228  5.951185e-02  2.849387e+03
4001.3605  6.317000e-02  2.863832e+03
4001.6981  4.856873e-02  2.830011e+03
4002.0358  8.147039e-03  2.727935e+03
4002.3735  3.892947e-03  2.721486e+03
4002.7112  3.728285e-02  2.814569e+03
4003.0488  3.293173e-02  2.807879e+03
4003.3865  4.285011e-02  2.838921e+03
4003.7242  5.922158e-02  2.887031e+03
4004.0618  6.107548e-02  2.896764e+03
4004.3995  3.745870e-02  2.839164e+03
4004.7372  4.476234e-02  2.863316e+03
4005.0748  5.777464e-02  2.902565e+03
4005.4125  6.990097e-02  2.939475e+03
4005.7502  7.696542e-02  2.963006e+03
4006.0879  5.191919e-02  2.901646e+03
4006.4255  4.879378e-02  2.898243e+03
4006.7632  5.576880e-02  2.921546e+03
4007.1009  3.501801e-02  2.871549e+03
4007.4385  2.197431e-02  2.841928e+03
4007.7762  2.891927e-02  2.865155e+03
4008.1139  3.560139e-02  2.887687e+03
4008.4516  5.956848e-02  2.955917e+03
4008.7892  7.062518e-02  2.990013e+03
4009.1269  5.937060e-02  2.965123e+03
4009.4646  7.731681e-02  3.017431e+03
4009.8022  1.919619e-01  3.325390e+03
4010.1399 -9.915228e-02  2.560601e+03
4010.4776 -2.947658e-01  2.048294e+03
4010.8152 -1.484203e-02  2.793208e+03
4011.1529  8.043586e-02  3.049952e+03
4011.4906 -2.066305e-03  2.836677e+03
4011.8283 -1.372741e-02  2.810688e+03
4012.1659 -1.742193e-02  2.805755e+03
4012.5036  2.051364e-02  2.910878e+03
4012.8413  4.741148e-02  2.986815e+03
4013.1789  5.084474e-02  3.000709e+03
4013.5166  2.973647e-02  2.949714e+03
4013.8543  1.285533e-02  2.909888e+03
4014.1920  2.638423e-02  2.950453e+03
4014.5296  4.679685e-02  3.009208e+03
4014.8673  4.899554e-02  3.019802e+03
4015.2050  3.713538e-02  2.993219e+03
4015.5426  1.442450e-02  2.937939e+03
4015.8803  6.311379e-03  2.921244e+03
4016.2180  1.779201e-02  2.956341e+03
4016.5557  3.729897e-02  3.012648e+03
4016.8933  5.405632e-02  3.061675e+03
4017.2310  5.675633e-02  3.073526e+03
4017.5687  3.325886e-02  3.016106e+03
4017.9063  2.220242e-02  2.991566e+03
4018.2440  3.593281e-02  3.032545e+03
4018.5817  5.568323e-02  3.089428e+03
4018.9193  5.171787e-02  3.083598e+03
4019.2570 -1.619833e-02  2.908683e+03
4019.5947 -7.091139e-03  2.937389e+03
4019.9324  1.242087e-01  3.289134e+03
4020.2700  5.321616e-02  3.106045e+03
4020.6077  2.922743e-02  3.047210e+03
4020.9454  2.265224e-02  3.034399e+03
4021.2830  3.194004e-02  3.063512e+03
4021.6207  2.793432e-02  3.057465e+03
4021.9584  2.428660e-02  3.052348e+03
4022.2961  4.169770e-02  3.102891e+03
4022.6337  5.687887e-02  3.147523e+03
4022.9714  4.543533e-02  3.121749e+03
4023.3091  1.559989e-02  3.047333e+03
4023.6467  1.985889e-02  3.063040e+03
4023.9844  1.788402e-02  3.062248e+03
4024.3221  2.343372e-02  3.081333e+03
4024.6597  5.411645e-02  3.166847e+03
4024.9974  5.045200e-02  3.161536e+03
4025.3351  4.001329e-02  3.138297e+03
4025.6728 -7.649797e-03  3.016627e+03
4026.0104 -4.944093e-02  2.910462e+03
4026.3481 -1.414546e-02  3.008081e+03
4026.6858 -7.550791e-03  3.029801e+03
4027.0234  1.836645e-02  3.102587e+03
4027.3611  3.747465e-02  3.157352e+03
4027.6988  4.462569e-03  3.074302e+03
4028.0365  2.810600e-03  3.074143e+03
4028.3741  3.048502e-02  3.151496e+03
4028.7118  2.916312e-02  3.152169e+03
4029.0495  2.202136e-02  3.137436e+03
4029.3871  3.206203e-02  3.168108e+03
4029.7248  3.483777e-02  3.179554e+03
4030.0625  1.007862e-02  3.118182e+03
4030.4002 -1.208431e-02  3.063653e+03
4030.7378 -1.716560e-02  3.054263e+03
4031.0755  3.258298e-03  3.112283e+03
4031.4132  1.247323e-02  3.140647e+03
4031.7508  1.886193e-02  3.161518e+03
4032.0885  2.014398e-02  3.168866e+03
4032.4262  7.491096e-04  3.121527e+03
4032.7638 -9.726732e-03  3.097747e+03
4033.1015 -2.165666e-03  3.121630e+03
4033.4392 -3.279476e-02  3.044525e+03
4033.7769 -4.511353e-02  3.015806e+03
4034.1145 -6.498691e-03  3.121723e+03
4034.4522  1.915817e-02  3.193360e+03
4034.7899  4.254505e-03  3.157741e+03
4035.1275  8.189500e-03  3.171905e+03
4035.4652  1.957158e-03  3.159166e+03
4035.8029 -7.997116e-03  3.136564e+03
4036.1406  7.769044e-03  3.181939e+03
4036.4782  1.469077e-02  3.203909e+03
4036.8159  3.149355e-03  3.177044e+03
4037.1536  1.981850e-02  3.224739e+03
4037.4912  4.717701e-02  3.300671e+03
4037.8289  2.116928e-02  3.235492e+03
4038.1666  7.271816e-04  3.185004e+03
4038.5042  3.138119e-02  3.269581e+03
4038.8419  3.031907e-02  3.270284e+03
4039.1796  3.316068e-02  3.281285e+03
4039.5173  4.224123e-02  3.308757e+03
4039.8549  3.713001e-02  3.298687e+03
4040.1926  2.361184e-02  3.266368e+03
4040.5303  1.599720e-02  3.249633e+03
4040.8679 -8.004642e-03  3.189552e+03
4041.2056 -7.111554e-03  3.195265e+03
4041.5433  1.591811e-02  3.259479e+03
4041.8810  3.488071e-02  3.312919e+03
4042.2186  5.276957e-02  3.363498e+03
4042.5563  2.889059e-02  3.303628e+03
4042.8940  1.250908e-02  3.263557e+03
4043.2316  2.278147e-02  3.293932e+03
4043.5693  1.940620e-02  3.288202e+03
4043.9070  1.486621e-02  3.279371e+03
4044.2447  9.643099e-04  3.245767e+03
4044.5823 -1.060546e-02  3.218306e+03
4044.9200  4.258654e-03  3.260709e+03
4045.2577 -3.007464e-03  3.244583e+03
4045.5953  3.806722e-03  3.265659e+03
4045.9330  2.923804e-03  3.266365e+03
4046.2707 -9.022870e-03  3.237799e+03
4046.6083 -2.501247e-02  3.198522e+03
4046.9460 -2.679338e-02  3.196789e+03
4047.2837 -1.146732e-02  3.240262e+03
4047.6214  8.733585e-03  3.296602e+03
4047.9590  5.537323e-03  3.291063e+03
4048.2967 -9.465790e-03  3.254289e+03
4048.6344 -1.373397e-03  3.278553e+03
4048.9720 -2.363241e-03  3.278786e+03
4049.3097 -1.207440e-02  3.255940e+03
4049.6474  1.421781e-02  3.328260e+03
4049.9851  1.411741e-02  3.330783e+03
4050.3227 -7.158261e-03  3.277303e+03
4050.6604  1.750351e-02  3.345252e+03
4050.9981 -5.916136e-03  3.286064e+03
4051.3357 -2.399513e-02  3.240976e+03
4051.6734 -2.114482e-02  3.251202e+03
4052.0111 -1.905078e-02  3.259409e+03
4052.3487  1.290733e-02  3.346551e+03
4052.6864  2.659623e-02  3.385375e+03
4053.0241  1.826335e-02  3.365959e+03
4053.3618  3.320791e-02  3.408065e+03
4053.6994  1.304243e-02  3.357330e+03
4054.0371 -2.961058e-02  3.247124e+03
4054.3748 -3.047837e-02  3.247372e+03
4054.7124 -1.299792e-02  3.296111e+03
4055.0501 -3.260973e-02  3.246768e+03
4055.3878 -5.032171e-02  3.202431e+03
4055.7255 -4.989763e-02  3.206026e+03
4056.0631 -2.740045e-02  3.267960e+03
4056.4008 -1.693592e-02  3.298066e+03
4056.7385 -2.201812e-02  3.287053e+03
4057.0761  1.949068e-02  3.399202e+03
4057.4138  9.531952e-02  3.602070e+03
4057.7515  1.084866e-01  3.639257e+03
4058.0892  3.355287e-02  3.443508e+03
4058.4268 -1.327345e-02  3.322055e+03
4058.7645 -1.575449e-02  3.317827e+03
4059.1022  3.984495e-03  3.372329e+03
4059.4398  8.232719e-03  3.385863e+03
4059.7775  1.990634e-02  3.419014e+03
4060.1152  3.804165e-01  4.374404e+03
4060.4528  6.555951e-01  5.104181e+03
4060.7905  3.604247e-01  4.326058e+03
4061.1282  4.975153e-02  3.506936e+03
4061.4659  5.648357e-02  3.526956e+03
4061.8035  5.912180e-02  3.536140e+03
4062.1412  2.905384e-02  3.458844e+03
4062.4789 -1.888661e-02  3.334284e+03
4062.8165 -3.936761e-03  3.375982e+03
4063.1542  1.656020e-02  3.432334e+03
4063.4919 -4.152665e-04  3.389606e+03
4063.8296 -1.219117e-03  3.389621e+03
4064.1672  2.345420e-02  3.456982e+03
4064.5049  3.504939e-02  3.489757e+03
4064.8426  3.624663e-02  3.495032e+03
4065.1802  1.777839e-02  3.448305e+03
4065.5179  3.469280e-02  3.495114e+03
4065.8556  4.701788e-02  3.529781e+03
4066.1933  2.712150e-02  3.479251e+03
4066.5309  1.545108e-02  3.450461e+03
4066.8686  4.435434e-05  3.411785e+03
4067.2063  3.092784e-02  3.495483e+03
4067.5439  6.519763e-02  3.588126e+03
4067.8816  5.090500e-02  3.552372e+03
4068.2193  4.672724e-02  3.543353e+03
4068.5569  2.970484e-02  3.500369e+03
4068.8946  3.069154e-02  3.504990e+03
4069.2323  2.176050e-02  3.483385e+03
4069.5700  8.810802e-03  3.451150e+03
4069.9076 -4.944923e-03  3.416778e+03
4070.2453 -5.735516e-03  3.416678e+03
4070.5830 -1.955224e-02  3.382135e+03
4070.9206 -1.535308e-02  3.395218e+03
4071.2583  3.428831e-03  3.446850e+03
4071.5960  1.072125e-02  3.468102e+03
4071.9337  9.323129e-03  3.466374e+03
4072.2713  3.839108e-03  3.453841e+03
4072.6090 -4.126436e-03  3.434744e+03
4072.9467 -1.344175e-02  3.412076e+03
4073.2843 -1.316115e-02  3.414775e+03
4073.6220 -6.259444e-03  3.434977e+03
4073.9597  9.164158e-03  3.477707e+03
4074.2973  3.532480e-02  3.548822e+03
4074.6350  2.745616e-02  3.529969e+03
4074.9727 -6.047098e-03  3.443342e+03
4075.3104 -3.462593e-02  3.369734e+03
4075.6480 -2.059384e-02  3.408781e+03
4075.9857 -2.688044e-02  3.394109e+03
4076.3234 -3.494976e-02  3.374724e+03
4076.6610 -1.402002e-02  3.432007e+03
4076.9987 -5.334044e-02  3.330002e+03
4077.3364 -5.564014e-02  3.325873e+03
4077.6741 -3.870925e-02  3.372588e+03
4078.0117 -2.616411e-02  3.407709e+03
4078.3494 -1.672670e-03  3.474416e+03
4078.6871 -1.791028e-02  3.433446e+03
4079.0247 -2.304428e-02  3.421834e+03
4079.3624  2.507299e-03  3.491352e+03
4079.7001  2.796761e-02  3.560632e+03
4080.0378  2.839054e-02  3.563722e+03
4080.3754 -2.086675e-02  3.435471e+03
4080.7131 -5.205597e-02  3.354992e+03
4081.0508 -4.703851e-02  3.370241e+03
4081.3884 -3.228102e-02  3.411246e+03
4081.7261 -2.837187e-02  3.423574e+03
4082.0638 -2.895276e-02  3.424037e+03
4082.4014 -4.822189e-02  3.375098e+03
4082.7391 -5.711139e-02  3.353606e+03
4083.0768 -5.752246e-02  3.354536e+03
4083.4145 -4.942648e-02  3.377963e+03
4083.7521 -4.388998e-02  3.394630e+03
4084.0898 -4.564035e-02  3.392039e+03
4084.4275 -1.002867e-01  3.249609e+03
4084.7651 -1.098570e-01  3.226358e+03
4085.1028 -8.312380e-02  3.299095e+03
4085.4405 -5.742900e-02  3.369094e+03
4085.7782 -6.897386e-02  3.340647e+03
4086.1158 -7.300605e-02  3.332071e+03
4086.4535 -7.953018e-02  3.316915e+03
4086.7912 -9.823432e-02  3.269567e+03
4087.1288 -8.681539e-02  3.301868e+03
4087.4665 -9.174198e-02  3.290964e+03
4087.8042 -1.142396e-01  3.233616e+03
4088.1418 -1.149190e-01  3.233961e+03
4088.4795 -9.905075e-02  3.278065e+03
4088.8172 -1.190922e-01  3.227241e+03
4089.1549 -1.509821e-01  3.145104e+03
4089.4925 -1.810015e-01  3.067923e+03
4089.8302 -1.606440e-01  3.123939e+03
4090.1679 -1.629251e-01  3.120116e+03
4090.5055 -1.773823e-01  3.084113e+03
4090.8432 -1.732734e-01  3.097207e+03
4091.1809 -1.864130e-01  3.064712e+03
4091.5186 -1.898183e-01  3.057964e+03
4091.8562 -2.217431e-01  2.975830e+03
4092.1939 -2.502044e-01  2.902866e+03
4092.5316 -2.775294e-01  2.832918e+03
4092.8692 -2.978391e-01  2.781532e+03
4093.2069 -3.027164e-01  2.770959e+03
4093.5446 -3.109966e-01  2.751403e+03
4093.8823 -3.390153e-01  2.679677e+03
4094.2199 -3.619561e-01  2.621390e+03
4094.5576 -3.666244e-01  2.611426e+03
4094.8953 -3.883125e-01  2.556480e+03
4095.2329 -4.093627e-01  2.503235e+03
4095.5706 -4.483395e-01  2.402611e+03
4095.9083 -4.535502e-01  2.391272e+03
4096.2459 -4.804667e-01  2.322564e+03
4096.5836 -5.208867e-01  2.218170e+03
4096.9213 -5.304688e-01  2.195322e+03
4097.2590 -5.488977e-01  2.149100e+03
4097.5966 -5.793036e-01  2.071229e+03
4097.9343 -6.037962e-01  2.009009e+03
4098.2720 -6.420547e-01  1.910411e+03
4098.6096 -6.918606e-01  1.781300e+03
4098.9473 -7.284607e-01  1.687119e+03
4099.2850 -7.537566e-01  1.622842e+03
4099.6227 -7.739087e-01  1.572180e+03
4099.9603 -8.082057e-01  1.484140e+03
4100.2980 -8.485020e-01  1.380256e+03
4100.6357 -8.663732e-01  1.335677e+03
4100.9733 -8.963081e-01  1.259221e+03
4101.3110 -9.145890e-01  1.213595e+03
4101.6487 -9.157937e-01  1.213132e+03
4101.9863 -9.266402e-01  1.187197e+03
4102.3240 -9.276502e-01  1.187285e+03
4102.6617 -9.272186e-01  1.191203e+03
4102.9994 -9.140207e-01  1.228890e+03
4103.3370 -8.844703e-01  1.309829e+03
4103.6747 -8.335580e-01  1.447264e+03
4104.0124 -8.038564e-01  1.528640e+03
4104.3500 -7.710591e-01  1.618219e+03
4104.6877 -7.210883e-01  1.753221e+03
4105.0254 -6.923424e-01  1.832127e+03
4105.3631 -6.647336e-01  1.908047e+03
4105.7007 -6.615188e-01  1.919493e+03
4106.0384 -6.457566e-01  1.964131e+03
4106.3761 -5.778662e-01  2.146605e+03
4106.7137 -5.217030e-01  2.298094e+03
4107.0514 -5.002406e-01  2.357861e+03
4107.3891 -4.540067e-01  2.483138e+03
4107.7268 -4.350520e-01  2.536314e+03
4108.0644 -4.478413e-01  2.505585e+03
4108.4021 -4.534660e-01  2.493818e+03
4108.7398 -4.474540e-01  2.512836e+03
4109.0774 -4.341784e-01  2.551078e+03
4109.4151 -4.226629e-01  2.584686e+03
4109.7528 -3.865627e-01  2.683312e+03
4110.0904 -3.254962e-01  2.847963e+03
4110.4281 -3.011049e-01  2.915672e+03
4110.7658 -3.236867e-01  2.859215e+03
4111.1035 -3.274238e-01  2.852599e+03
4111.4411 -2.895281e-01  2.956072e+03
4111.7788 -2.820385e-01  2.979178e+03
4112.1165 -2.769031e-01  2.996081e+03
4112.4541 -2.727247e-01  3.010473e+03
4112.7918 -2.658327e-01  3.032060e+03
4113.1295 -2.383248e-01  3.108172e+03
4113.4672 -1.927724e-01  3.232010e+03
4113.8048 -1.975298e-01  3.222859e+03
4114.1425 -1.950845e-01  3.232772e+03
4114.4802 -1.840384e-01  3.265443e+03
4114.8178 -1.751039e-01  3.292553e+03
4115.1555 -1.332111e-01  3.406818e+03
4115.4932 -9.504408e-02  3.511252e+03
4115.8308 -6.635418e-02  3.590652e+03
4116.1685 -4.856402e-02  3.641255e+03
4116.5062 -4.724512e-02  3.648332e+03
4116.8439 -6.066767e-02  3.616456e+03
4117.1815 -7.013084e-02  3.595068e+03
4117.5192 -5.569176e-02  3.636893e+03
4117.8569 -5.696852e-02  3.637188e+03
4118.1945 -6.849308e-02  3.610410e+03
4118.5322 -3.664919e-02  3.698310e+03
4118.8699 -2.396286e-02  3.735582e+03
4119.2076 -4.127940e-02  3.693551e+03
4119.5452 -4.761206e-02  3.680580e+03
4119.8829 -1.951385e-02  3.758657e+03
4120.2206  1.688437e-02  3.858697e+03
4120.5582  3.031796e-02  3.898043e+03
4120.8959  1.605325e-02  3.864181e+03
4121.2336  1.545396e-02  3.866466e+03
4121.5713  1.924418e-02  3.880376e+03
4121.9089  1.744822e-02  3.879537e+03
4122.2466  3.127039e-02  3.920008e+03
4122.5843  3.982586e-02  3.946574e+03
4122.9219  2.371694e-02  3.907952e+03
4123.2596  1.532707e-02  3.889757e+03
4123.5973 -1.246791e-02  3.820277e+03
4123.9349 -1.851328e-02  3.808318e+03
4124.2726  1.988731e-02  3.913884e+03
4124.6103  3.357842e-02  3.954142e+03
4124.9480  4.221263e-02  3.981049e+03
4125.2856  6.490301e-02  4.045136e+03
4125.6233  2.953939e-02  3.955759e+03
4125.9610  5.218641e-03  3.895595e+03
4126.2986 -3.363099e-03  3.877060e+03
4126.6363 -1.468119e-02  3.851308e+03
4126.9740 -4.608732e-02  3.772466e+03
4127.3117 -6.736969e-02  3.720406e+03
4127.6493 -4.811121e-02  3.775547e+03
4127.9870 -3.822163e-02  3.805935e+03
4128.3247 -4.212190e-02  3.799883e+03
4128.6623 -2.283845e-02  3.855141e+03
4129.0000 -3.163554e-02  3.836177e+03
4129.3377 -5.071277e-02  3.790052e+03
4129.6753 -4.400725e-02  3.812107e+03
4130.0130 -5.460946e-02  3.788422e+03
4130.3507 -2.993006e-02  3.858030e+03
4130.6884 -2.827015e-02  3.866795e+03
4131.0260 -3.007357e-02  3.866421e+03
4131.3637 -3.540102e-02  3.856746e+03
4131.7014 -4.264028e-02  3.842032e+03
4132.0390 -2.886875e-02  3.882882e+03
4132.3767 -8.733355e-03  3.940572e+03
4132.7144  2.403175e-02  4.031668e+03
4133.0521  4.663588e-02  4.095916e+03
4133.3897  6.108656e-02  4.138623e+03
4133.7274  6.942645e-02  4.165189e+03
4134.0651  7.471139e-02  4.183693e+03
4134.4027  6.673182e-02  4.167143e+03
4134.7404  6.798019e-02  4.175003e+03
4135.0781  6.230385e-02  4.164571e+03
4135.4158  6.871737e-02  4.186115e+03
4135.7534  7.216900e-02  4.199843e+03
4136.0911  8.233396e-02  4.231333e+03
4136.4288  7.192465e-02  4.208441e+03
4136.7664  6.843714e-02  4.203863e+03
4137.1041  2.083483e-02  4.082667e+03
4137.4418 -2.741721e-03  4.025004e+03
4137.7794  3.438549e-02  4.127841e+03
4138.1171  6.367712e-02  4.209975e+03
4138.4548  7.023370e-02  4.232014e+03
4138.7925  9.606865e-02  4.305033e+03
4139.1301  1.153307e-01  4.360686e+03
4139.4678  1.045636e-01  4.336960e+03
4139.8055  5.276928e-02  4.204777e+03
4140.1431  5.171638e-02  4.206756e+03
4140.4808  9.719020e-02  4.331752e+03
4140.8185  1.215312e-01  4.400889e+03
4141.1562  1.046544e-01  4.361064e+03
4141.4938  8.558120e-02  4.315442e+03
4141.8315  9.736284e-02  4.351405e+03
4142.1692  9.977245e-02  4.362599e+03
4142.5068  1.012801e-01  4.371418e+03
4142.8445  8.841051e-02  4.342236e+03
4143.1822  8.559233e-02  4.339637e+03
4143.5199  1.138378e-01  4.419173e+03
4143.8575  8.253450e-02  4.341282e+03
4144.1952  2.508861e-02  4.194284e+03
4144.5329  2.186316e-02  4.190642e+03
4144.8705  6.302263e-02  4.304353e+03
4145.2082  8.146315e-02  4.358006e+03
4145.5459  6.103117e-02  4.308896e+03
4145.8835  3.097843e-02  4.234358e+03
4146.2212  3.257182e-02  4.243493e+03
4146.5589  6.733772e-02  4.340336e+03
4146.8966  8.235069e-02  4.384962e+03
4147.2342  4.238062e-02  4.284231e+03
4147.5719  2.469016e-02  4.242408e+03
4147.9096  5.844204e-02  4.336594e+03
4148.2472  4.985406e-02  4.318848e+03
4148.5849  3.959472e-02  4.296688e+03
4148.9226  4.857963e-02  4.325410e+03
4149.2603  2.715849e-02  4.273750e+03
4149.5979  1.058026e-02  4.234898e+03
4149.9356  2.677414e-02  4.282693e+03
4150.2733  6.332319e-02  4.384307e+03
4150.6109  8.628235e-02  4.449995e+03
4150.9486  9.782310e-02  4.485499e+03
4151.2863  8.462942e-02  4.455613e+03
4151.6239  7.260116e-02  4.428812e+03
4151.9616  8.952769e-02  4.478563e+03
4152.2993  1.019617e-01  4.516439e+03
4152.6370  7.155173e-02  4.441047e+03
4152.9746  6.339006e-02  4.424477e+03
4153.3123  7.325383e-02  4.455564e+03
4153.6500  7.145230e-02  4.455812e+03
4153.9876  7.053187e-02  4.458390e+03
4154.3253  8.911970e-02  4.512544e+03
4154.6630  9.078661e-02  4.521964e+03
4155.0007  7.514562e-02  4.485626e+03
4155.3383  7.234346e-02  4.483231e+03
4155.6760  8.934601e-02  4.533195e+03
4156.0137  1.241428e-01  4.630204e+03
4156.3513  1.098446e-01  4.597414e+03
4156.6890  8.975534e-02  4.549313e+03
4157.0267  6.060252e-02  4.477249e+03
4157.3644  4.786344e-02  4.448577e+03
4157.7020  7.331452e-02  4.520871e+03
4158.0397  7.477374e-02  4.529733e+03
4158.3774  5.738496e-02  4.488763e+03
4158.7150  7.379974e-02  4.537160e+03
4159.0527  7.491904e-02  4.545116e+03
4159.3904  8.861148e-02  4.586310e+03
4159.7280  7.365855e-02  4.551768e+03
4160.0657  6.377133e-02  4.530615e+03
4160.4034  6.888786e-02  4.549125e+03
4160.7411  5.295319e-02  4.511977e+03
4161.0787  5.051042e-02  4.510493e+03
4161.4164  5.588562e-02  4.529674e+03
4161.7541  7.059259e-02  4.573522e+03
4162.0917  2.889089e-02  4.468231e+03
4162.4294 -2.846427e-04  4.396052e+03
4162.7671  1.522642e-02  4.442010e+03
4163.1048  3.355564e-02  4.495412e+03
4163.4424  6.642960e-02  4.587262e+03
4163.7801  6.385871e-02  4.585396e+03
4164.1178  5.331764e-02  4.562452e+03
4164.4554  6.530479e-02  4.599062e+03
4164.7931  5.609911e-02  4.579634e+03
4165.1308  4.092481e-02  4.544420e+03
4165.4684  5.533193e-02  4.587405e+03
4165.8061  5.454724e-02  4.590219e+03
4166.1438  5.499211e-02  4.596275e+03
4166.4815  3.592289e-02  4.550731e+03
4166.8191  3.972070e-02  4.565635e+03
4167.1568  7.795307e-04  4.467537e+03
4167.4945 -3.119230e-02  4.387855e+03
4167.8321  7.381911e-04  4.477109e+03
4168.1698  4.571170e-02  4.600837e+03
4168.5075  4.091973e-02  4.592985e+03
4168.8452  4.048390e-03  4.500312e+03
4169.1828 -4.675027e-03  4.482045e+03
4169.5205  1.204295e-02  4.531031e+03
4169.8582 -1.711503e-02  4.458719e+03
4170.1958 -1.596969e-02  4.466512e+03
4170.5335 -6.486039e-03  4.496338e+03
4170.8712 -3.122774e-03  4.509973e+03
4171.2089  3.750815e-02  4.622124e+03
4171.5465  6.337706e-02  4.695235e+03
4171.8842  4.296532e-02  4.645978e+03
4172.2219  2.644441e-03  4.544072e+03
4172.5595 -1.039497e-02  4.514281e+03
4172.8972 -1.712541e-02  4.501157e+03
4173.2349 -3.334069e-02  4.462944e+03
4173.5725 -6.331648e-02  4.388338e+03
4173.9102 -2.027991e-02  4.506749e+03
4174.2479  3.814663e-03  4.575067e+03
4174.5856 -3.182446e-02  4.485448e+03
4174.9232 -1.409879e-02  4.536901e+03
4175.2609  2.048586e-02  4.632911e+03
4175.5986  1.608596e-02  4.625840e+03
4175.9362  2.215292e-02  4.646426e+03
4176.2739  1.165826e-02  4.623212e+03
4176.6116  1.208734e-02  4.628864e+03
4176.9493 -2.211913e-02  4.542931e+03
4177.2869 -7.956629e-02  4.395539e+03
4177.6246 -8.959709e-02  4.373490e+03
4177.9623 -7.897904e-02  4.406018e+03
4178.2999 -8.372779e-02  4.397902e+03
4178.6376 -8.803201e-02  4.390946e+03
4178.9753 -5.426580e-02  4.484625e+03
4179.3129 -3.881049e-02  4.529876e+03
4179.6506 -6.338494e-02  4.469280e+03
4179.9883 -6.478228e-02  4.469943e+03
4180.3260 -7.244673e-02  4.454021e+03
4180.6636 -2.873298e-02  4.573914e+03
4181.0013 -1.184030e-02  4.622881e+03
4181.3390 -1.635807e-03  4.654148e+03
4181.6766  1.851959e-02  4.711706e+03
4182.0143  1.270387e-02  4.700583e+03
4182.3520 -1.141444e-03  4.668214e+03
4182.6897 -1.485431e-02  4.636177e+03
4183.0273 -9.633655e-03  4.654178e+03
4183.3650  1.252519e-02  4.716941e+03
4183.7027  4.499969e-02  4.806959e+03
4184.0403  4.044775e-02  4.799067e+03
4184.3780  2.644644e-03  4.703248e+03
4184.7157 -2.293220e-02  4.639732e+03
4185.0534 -5.429828e-03  4.690091e+03
4185.3910 -7.715882e-03  4.688113e+03
4185.7287 -2.335511e-04  4.711942e+03
4186.0664  9.799005e-03  4.742493e+03
4186.4040  1.654066e-02  4.764324e+03
4186.7417  3.809528e-02  4.825298e+03
4187.0794  4.058128e-02  4.835838e+03
4187.4170  2.708320e-02  4.804099e+03
4187.7547  1.409256e-02  4.773682e+03
4188.0924  1.243866e-02  4.773216e+03
4188.4301  2.779651e-02  4.817705e+03
4188.7677  5.215301e-02  4.885964e+03
4189.1054  3.750138e-02  4.851073e+03
4189.4431 -1.111708e-02  4.726360e+03
4189.7807 -1.178723e-02  4.728391e+03
4190.1184 -6.513303e-03  4.746116e+03
4190.4561 -1.134200e-02  4.737111e+03
4190.7938 -4.478814e-03  4.758995e+03
4191.1314  1.577856e-02  4.816270e+03
4191.4691  3.582466e-02  4.872964e+03
4191.8068  3.777475e-02  4.881794e+03
4192.1444  4.773286e-02  4.911775e+03
4192.4821  3.946465e-02  4.893547e+03
4192.8198  3.636585e-02  4.888964e+03
4193.1574  2.542827e-02  4.863635e+03
4193.4951  9.151904e-03  4.824169e+03
4193.8328  4.156543e-02  4.913407e+03
4194.1705  3.048821e-02  4.887643e+03
4194.5081  4.027713e-02  4.917021e+03
4194.8458  8.324008e-02  5.034083e+03
4195.1835  3.996620e-02  4.923130e+03
4195.5211  1.283086e-02  4.854822e+03
4195.8588 -3.194089e-03  4.815864e+03
4196.1965  1.058987e-03  4.830495e+03
4196.5342  1.572327e-02  4.872628e+03
4196.8718 -9.783392e-03  4.808535e+03
4197.2095 -2.948921e-02  4.759755e+03
4197.5472  8.710227e-03  4.864042e+03
4197.8848  5.280714e-02  4.983898e+03
4198.2225  2.923238e-02  4.924821e+03
4198.5602  2.057977e-04  4.851308e+03
4198.8979 -5.879386e-03  4.838423e+03
4199.2355 -2.268297e-02  4.797179e+03
4199.5732 -4.073980e-02  4.752598e+03
4199.9109 -4.005798e-02  4.757535e+03
4200.2485 -3.567601e-02  4.772231e+03
4200.5862 -2.568471e-03  4.862849e+03
4200.9239  3.250581e-03  4.881298e+03
4201.2615 -4.491071e-03  4.863872e+03
4201.5992  2.989043e-02  4.957788e+03
4201.9369  1.271620e-02  4.915378e+03
4202.2746 -4.823962e-02  4.757195e+03
4202.6122 -6.949206e-02  4.703956e+03
4202.9499 -6.301031e-02  4.724018e+03
4203.2876 -3.872343e-02  4.791129e+03
4203.6252 -9.491337e-03  4.871291e+03
4203.9629  4.012572e-03  4.909848e+03
4204.3006 -1.371157e-02  4.865820e+03
4204.6383 -2.723018e-02  4.832888e+03
4204.9759 -4.717529e-02  4.782942e+03
4205.3136 -2.864927e-02  4.834683e+03
4205.6513 -2.566730e-02  4.845305e+03
4205.9889 -6.202440e-02  4.751899e+03
4206.3266 -9.320544e-02  4.672155e+03
4206.6643 -8.496811e-02  4.696601e+03
4207.0020 -6.408240e-02  4.754464e+03
4207.3396 -6.094855e-02  4.765371e+03
4207.6773 -6.083814e-02  4.768262e+03
4208.0150 -6.018116e-02  4.772574e+03
4208.3526 -5.952280e-02  4.776867e+03
4208.6903 -5.885642e-02  4.781158e+03
4209.0280 -5.818058e-02  4.785451e+03
4209.3656 -5.749565e-02  4.789745e+03
4209.7033 -5.680256e-02  4.794038e+03
4210.0410 -5.610024e-02  4.798332e+03
4210.3787 -5.538960e-02  4.802625e+03
4210.7163 -5.467013e-02  4.806918e+03
4211.0540 -5.394202e-02  4.811211e+03
4211.3917 -5.320455e-02  4.815507e+03
4211.7293 -5.245923e-02  4.819800e+03
4212.0670 -5.170458e-02  4.824096e+03
4212.4047 -5.094176e-02  4.828390e+03
4212.7424 -5.017022e-02  4.832685e+03
4213.0800 -4.938962e-02  4.836981e+03
4213.4177 -4.860146e-02  4.841275e+03
4213.7554 -4.780410e-02  4.845571e+03
4214.0930 -4.699831e-02  4.849867e+03
4214.4307 -4.618413e-02  4.854163e+03
4214.7684 -4.536156e-02  4.858459e+03
4215.1060 -4.453028e-02  4.862756e+03
4215.4437 -4.369106e-02  4.867052e+03
4215.7814 -4.284281e-02  4.871350e+03
4216.1191 -4.198686e-02  4.875646e+03
4216.4567 -4.112232e-02  4.879943e+03
4216.7944 -4.024978e-02  4.884240e+03
4217.1321 -3.936889e-02  4.888538e+03
4217.4697 -3.847953e-02  4.892836e+03
4217.8074 -3.758207e-02  4.897134e+03
4218.1451 -3.667676e-02  4.901432e+03
4218.4828 -3.576325e-02  4.905730e+03
4218.8204 -3.484177e-02  4.910029e+03
4219.1581 -3.391162e-02  4.914329e+03
4219.4958 -3.297431e-02  4.918627e+03
4219.8334 -3.202897e-02  4.922926e+03
4220.1711 -3.107507e-02  4.927227e+03
4220.5088 -3.011433e-02  4.931525e+03
4220.8465 -2.914531e-02  4.935825e+03
4221.1841 -2.816842e-02  4.940125e+03
4221.5218 -2.718389e-02  4.944426e+03
4221.8595 -2.619195e-02  4.948726e+03
4222.1971 -2.519172e-02  4.953027e+03
4222.5348 -2.418454e-02  4.957328e+03
4222.8725 -2.316954e-02  4.961629e+03
4223.2101 -2.214712e-02  4.965930e+03
4223.5478 -2.111735e-02  4.970231e+03
4223.8855 -2.008008e-02  4.974533e+03
4224.2232 -1.903518e-02  4.978836e+03
4224.5608 -1.798344e-02  4.983138e+03
4224.8985 -1.692436e-02  4.987440e+03
4225.2362 -1.585797e-02  4.991743e+03
4225.5738 -1.478472e-02  4.996045e+03
4225.9115 -1.370410e-02  5.000348e+03
4226.2492 -1.261671e-02  5.004651e+03
4226.5869 -1.152224e-02  5.008954e+03
4226.9245 -1.042074e-02  5.013258e+03
4227.2622 -9.312280e-03  5.017562e+03
4227.5999 -8.748937e-03  5.020407e+03
4227.9375 -1.535484e-02  5.004281e+03
4228.2752 -3.501222e-02  4.953631e+03
4228.6129 -3.594478e-02  4.952469e+03
4228.9505 -2.668799e-02  4.978229e+03
4229.2882 -3.175426e-02  4.966104e+03
4229.6259 -6.638918e-02  4.875788e+03
4229.9636 -2.324251e-02  4.991095e+03
4230.3012  4.844788e-02  5.181849e+03
4230.6389 -2.620523e-02  4.985684e+03
4230.9766 -2.154049e-02  4.999203e+03
4231.3142 -7.238123e-03  5.038186e+03
4231.6519 -1.813892e-02  5.010521e+03
4231.9896 -8.485612e-02  4.835272e+03
4232.3273 -3.567801e-02  4.966413e+03
4232.6649 -2.864628e-02  4.986111e+03
4233.0026 -1.167879e-01  4.754175e+03
4233.3403 -1.125494e-01  4.766458e+03
4233.6779 -8.613868e-02  4.837345e+03
4234.0156 -9.494506e-02  4.815111e+03
4234.3533 -1.014257e-01  4.799011e+03
4234.6910 -5.751061e-02  4.916132e+03
4235.0286 -4.768253e-02  4.943121e+03
4235.3663 -7.673643e-02  4.867299e+03
4235.7040 -4.673141e-02  4.947603e+03
4236.0416 -6.762347e-02  4.893332e+03
4236.3793 -2.219311e-02  5.014391e+03
4236.7170 -1.001430e-01  4.809244e+03
4237.0546 -6.281141e-02  4.908864e+03
4237.3923 -2.244072e-02  5.016507e+03
4237.7300 -9.459448e-03  5.051725e+03
4238.0677  4.475316e-03  5.089451e+03
4238.4053 -1.844610e-02  5.029724e+03
4238.7430 -4.450246e-02  4.961697e+03
4239.0807  3.251833e-03  5.088799e+03
4239.4183 -4.226364e-02  4.969302e+03
4239.7560 -5.881229e-02  4.926376e+03
4240.0937 -5.868066e-02  4.927539e+03
4240.4314 -6.147951e-02  4.920942e+03
4240.7690 -3.252589e-02  4.998281e+03
4241.1067 -1.506011e-02  5.045238e+03
4241.4444 -2.848551e-02  5.010515e+03
4241.7820 -6.007781e-02  4.927751e+03
4242.1197 -5.959048e-02  4.929789e+03
4242.4574 -5.507794e-02  4.942459e+03
4242.7950 -4.233560e-02  4.976877e+03
4243.1327 -5.589122e-02  4.941759e+03
4243.4704 -4.684208e-02  4.966394e+03
4243.8081 -6.875943e-02  4.909150e+03
4244.1457 -3.308704e-02  5.004153e+03
4244.4834  7.816545e-02  5.298965e+03
4244.8211 -1.264520e-02  5.059555e+03
4245.1587 -5.454801e-03  5.079231e+03
4245.4964 -4.961913e-02  4.963128e+03
4245.8341  1.256686e-02  5.128185e+03
4246.1718  2.770178e-02  5.168841e+03
4246.5094  1.595567e-02  5.138421e+03
4246.8471 -7.144265e-02  4.907984e+03
4247.1848 -1.251715e-02  5.064391e+03
4247.5224 -7.597356e-02  4.897238e+03
4247.8601 -5.571910e-03  5.083971e+03
4248.1978  1.666657e-02  5.143364e+03
4248.5355  7.167971e-02  5.289400e+03
4248.8731  4.593591e-02  5.221925e+03
4249.2108 -4.686932e-03  5.088669e+03
4249.5485 -2.023246e-02  5.048144e+03
4249.8861 -2.091131e-02  5.046918e+03
4250.2238 -2.997059e-02  5.023530e+03
4250.5615 -2.743547e-02  5.030791e+03
4250.8991 -3.169002e-02  5.020095e+03
4251.2368 -7.196018e-03  5.085400e+03
4251.5745 -4.081221e-02  4.997069e+03
4251.9122 -4.806026e-02  4.978446e+03
4252.2498 -6.076982e-02  4.945379e+03
4252.5875 -5.980769e-02  4.948453e+03
4252.9252 -5.065719e-02  4.973172e+03
4253.2628 -3.820582e-02  5.006614e+03
4253.6005 -4.871928e-02  4.979338e+03
4253.9382 -5.711477e-02  4.957658e+03
4254.2759 -2.776376e-02  5.035770e+03
4254.6135  4.055403e-03  5.120403e+03
4254.9512 -3.453613e-02  5.018883e+03
4255.2889 -6.796061e-02  4.931021e+03
4255.6265 -1.298913e-02  5.076857e+03
4255.9642 -7.877448e-03  5.090872e+03
4256.3019  1.944993e-02  5.163619e+03
4256.6395  7.810148e-03  5.133343e+03
4256.9772 -3.008617e-02  5.033649e+03
4257.3149 -3.413529e-02  5.023438e+03
4257.6526 -9.693991e-03  5.088550e+03
4257.9902 -3.008681e-02  5.035128e+03
4258.3279 -1.589203e-02  5.073148e+03
4258.6656 -5.780255e-02  4.962836e+03
4259.0032 -5.471800e-02  4.971482e+03
4259.3409 -5.977324e-02  4.958608e+03
4259.6786 -2.163518e-02  5.059929e+03
4260.0163 -3.050807e-02  5.036962e+03
4260.3539 -6.468024e-02  4.947109e+03
4260.6916  7.970743e-03  5.139676e+03
4261.0293  5.694045e-03  5.134150e+03
4261.3669 -3.354991e-02  5.030892e+03
4261.7046 -6.334525e-02  4.952614e+03
4262.0423 -6.087071e-02  4.959653e+03
4262.3800  2.580846e-02  5.189314e+03
4262.7176  1.693553e-02  5.166356e+03
4263.0553  2.812890e-02  5.196451e+03
4263.3930  2.964066e-03  5.130425e+03
4263.7306  1.662560e-02  5.167050e+03
4264.0683 -5.962611e-03  5.107840e+03
4264.4060  5.074362e-02  5.258272e+03
4264.7436  1.835535e-02  5.173159e+03
4265.0813  5.182111e-03  5.138849e+03
4265.4190 -1.540960e-03  5.121596e+03
4265.7567  2.512171e-02  5.192611e+03
4266.0943  1.722286e-02  5.172256e+03
4266.4320  2.575734e-02  5.195351e+03
4266.7697  1.158499e-02  5.158418e+03
4267.1073  6.714795e-02  5.305855e+03
4267.4450  5.867730e-02  5.284004e+03
4267.7827 -5.193157e-03  5.115692e+03
4268.1204  1.369782e-02  5.166189e+03
4268.4580 -6.205191e-02  4.966480e+03
4268.7957 -1.553935e-03  5.126988e+03
4269.1334  3.714341e-02  5.229864e+03
4269.4710  6.634793e-02  5.307648e+03
4269.8087  4.785842e-02  5.259344e+03
4270.1464  4.423594e-02  5.250352e+03
4270.4841 -2.380229e-02  5.071062e+03
4270.8217  7.250418e-02  5.326273e+03
4271.1594  4.603349e-02  5.256893e+03
4271.4971 -1.923264e-02  5.084951e+03
4271.8347  3.988321e-04  5.137467e+03
4272.1724  7.274906e-02  5.329368e+03
4272.5101  3.384984e-02  5.227155e+03
4272.8477  7.123063e-02  5.326617e+03
4273.1854  4.274409e-02  5.251947e+03
4273.5231  9.987497e-02  5.403639e+03
4273.8608  5.990487e-02  5.298623e+03
4274.1984  6.475381e-02  5.312106e+03
4274.5361  8.398754e-02  5.363628e+03
4274.8738  7.607139e-02  5.343379e+03
4275.2114  3.416293e-02  5.233270e+03
4275.5491  5.428026e-02  5.287151e+03
4275.8868  8.742838e-02  5.375492e+03
4276.2245  6.917891e-02  5.327957e+03
4276.5621 -7.180742e-03  5.126798e+03
4276.8998  4.742788e-02  5.271901e+03
4277.2375  5.190849e-02  5.284485e+03
4277.5751  4.284837e-02  5.261279e+03
4277.9128  4.780681e-02  5.275145e+03
4278.2505  6.081111e-02  5.310291e+03
4278.5881  3.050408e-02  5.230939e+03
4278.9258  4.052539e-02  5.258218e+03
4279.2635  3.232108e-02  5.237321e+03
4279.6012  3.913703e-02  5.256144e+03
4279.9388  3.969219e-02  5.258425e+03
4280.2765  8.683314e-02  5.383879e+03
4280.6142  1.219241e-01  5.477485e+03
4280.9518  7.040209e-02  5.342115e+03
4281.2895  4.012283e-02  5.262916e+03
4281.6272  6.551849e-02  5.330921e+03
4281.9649 -3.216533e-02  5.073539e+03
4282.3025 -1.210854e-02  5.127450e+03
4282.6402  8.718221e-02  5.390851e+03
4282.9779 -6.701450e-03  5.143548e+03
4283.3155  7.335460e-04  5.164122e+03
4283.6532  7.890038e-02  5.371708e+03
4283.9909  6.025788e-02  5.323361e+03
4284.3286  3.072995e-02  5.246246e+03
4284.6662  8.997327e-02  5.403836e+03
4285.0039  5.716086e-02  5.318061e+03
4285.3416  8.547809e-02  5.393911e+03
4285.6792  1.245533e-01  5.498215e+03
4286.0169  1.269830e-01  5.505648e+03
4286.3546  4.891819e-02  5.300281e+03
4286.6922  1.024107e-01  5.442737e+03
4287.0299  9.938693e-02  5.435788e+03
4287.3676  9.144165e-02  5.415839e+03
4287.7053  4.352255e-02  5.290220e+03
4288.0429  1.069351e-01  5.458952e+03
4288.3806  3.962905e-02  5.282102e+03
4288.7183  8.960120e-02  5.415325e+03
4289.0559  9.085439e-02  5.419757e+03
4289.3936  6.414881e-03  5.197647e+03
4289.7313  3.354667e-03  5.190701e+03
4290.0690  3.590954e-02  5.277927e+03
4290.4066  4.082911e-02  5.292103e+03
4290.7443  5.350276e-02  5.326792e+03
4291.0820  5.602431e-02  5.334655e+03
4291.4196  5.029323e-02  5.320712e+03
4291.7573  5.086912e-02  5.323457e+03
4292.0950  4.371540e-02  5.305779e+03
4292.4326  4.608773e-02  5.313299e+03
4292.7703  5.799571e-02  5.346043e+03
4293.1080  3.404618e-02  5.284001e+03
4293.4457  2.501630e-02  5.261417e+03
4293.7833  4.131627e-02  5.305812e+03
4294.1210  9.365860e-02  5.445511e+03
4294.4587  4.189267e-02  5.309981e+03
4294.7963  6.454197e-02  5.371205e+03
4295.1340  9.163561e-02  5.444191e+03
4295.4717  1.057123e-01  5.482778e+03
4295.8094  8.417848e-02  5.427231e+03
4296.1470  1.186446e-01  5.519750e+03
4296.4847  1.133520e-01  5.507170e+03
4296.8224  8.435277e-02  5.431928e+03
4297.1600  6.137171e-02  5.372610e+03
4297.4977  9.327282e-02  5.458404e+03
4297.8354  1.043931e-01  5.489272e+03
4298.1731  9.047599e-02  5.453960e+03
4298.5107  8.045512e-02  5.428963e+03
4298.8484  1.338352e-02  5.253149e+03
4299.1861  6.746187e-02  5.397646e+03
4299.5237  9.833121e-02  5.480797e+03
4299.8614  3.742211e-02  5.321318e+03
4300.1991  3.887261e-02  5.326720e+03
4300.5367 -2.182583e-02  5.167827e+03
4300.8744 -1.866834e-02  5.177771e+03
4301.2121  9.368970e-03  5.253505e+03
4301.5498  2.611007e-02  5.299390e+03
4301.8874  3.220043e-02  5.317130e+03
4302.2251  3.669020e-02  5.330653e+03
4302.5628  9.517307e-03  5.260480e+03
4302.9004 -2.337790e-02  5.175194e+03
4303.2381  3.813060e-02  5.339506e+03
4303.5758  7.658295e-02  5.442876e+03
4303.9135  3.400496e-02  5.332034e+03
4304.2511  7.028481e-02  5.429689e+03
4304.5888  7.309701e-02  5.438878e+03
4304.9265  7.145847e-02  5.436314e+03
4305.2641  9.228694e-02  5.493163e+03
4305.6018  1.304813e-01  5.595938e+03
4305.9395  9.037852e-02  5.491725e+03
4306.2771  6.656380e-02  5.430589e+03
4306.6148  2.985176e-02  5.335370e+03
4306.9525  5.563702e-03  5.273012e+03
4307.2902 -1.043059e-02  5.232595e+03
4307.6278 -6.622376e-03  5.244546e+03
4307.9655 -3.426683e-02  5.173357e+03
4308.3032 -1.703792e-02  5.220818e+03
4308.6408  5.068538e-02  5.401791e+03
4308.9785  2.716008e-02  5.341535e+03
4309.3162  3.383477e-02  5.361136e+03
4309.6539  6.383127e-02  5.442410e+03
4309.9915  4.311481e-02  5.389623e+03
4310.3292  6.939033e-02  5.461087e+03
4310.6669  5.779511e-02  5.432443e+03
4311.0045  7.145709e-02  5.470588e+03
4311.3422  6.568182e-02  5.457359e+03
4311.6799  7.278682e-02  5.478197e+03
4312.0176  7.842708e-02  5.495176e+03
4312.3552  3.007900e-02  5.369436e+03
4312.6929  2.875714e-02  5.368037e+03
4313.0306  8.843753e-02  5.527929e+03
4313.3682  7.561339e-02  5.496148e+03
4313.7059 -5.399434e-03  5.284104e+03
4314.0436 -1.051644e-02  5.272728e+03
4314.3812 -5.664857e-02  5.152929e+03
4314.7189  5.632664e-03  5.319767e+03
4315.0566  4.161098e-02  5.417079e+03
4315.3943  2.155491e-02  5.366261e+03
4315.7319  4.011353e-02  5.417546e+03
4316.0696  7.614264e-03  5.333858e+03
4316.4073  1.595098e-02  5.358146e+03
4316.7449  7.485645e-02  5.516140e+03
4317.0826  1.546036e-02  5.361383e+03
4317.4203  3.401031e-02  5.412712e+03
4317.7580  5.798584e-02  5.478399e+03
4318.0956  1.219324e-01  5.649775e+03
4318.4333 -2.882860e-02  5.253521e+03
4318.7710 -6.238679e-02  5.167140e+03
4319.1086  1.020656e-02  5.361415e+03
4319.4463  1.001428e-03  5.339445e+03
4319.7840  1.559951e-02  5.380418e+03
4320.1216 -8.623047e-02  5.113593e+03
4320.4593 -4.664423e-02  5.220656e+03
4320.7970 -1.210018e-03  5.343192e+03
4321.1347 -5.809575e-02  5.195229e+03
4321.4723 -9.652545e-02  5.096071e+03
4321.8100 -4.774773e-02  5.227485e+03
4322.1477  8.146133e-03  5.377726e+03
4322.4853 -4.487232e-02  5.240036e+03
4322.8230  3.070143e-04  5.361974e+03
4323.1607 -4.807417e-02  5.236569e+03
4323.4984 -4.988076e-02  5.234311e+03
4323.8360 -7.455223e-02  5.171614e+03
4324.1737 -1.110501e-01  5.077663e+03
4324.5114 -9.822299e-02  5.114128e+03
4324.8490 -4.791606e-02  5.249695e+03
4325.1867 -1.127787e-01  5.080789e+03
4325.5244 -1.963659e-01  4.862391e+03
4325.8621 -1.968347e-01  4.863752e+03
4326.1997 -2.186621e-01  4.808657e+03
4326.5374 -2.600602e-01  4.701833e+03
4326.8751 -2.806950e-01  4.649914e+03
4327.2127 -2.308027e-01  4.784466e+03
4327.5504 -2.274682e-01  4.795939e+03
4327.8881 -2.572485e-01  4.719875e+03
4328.2257 -2.213442e-01  4.817479e+03
4328.5634 -2.614518e-01  4.714134e+03
4328.9011 -2.400011e-01  4.773548e+03
4329.2388 -2.132283e-01  4.847042e+03
4329.5764 -2.901952e-01  4.646281e+03
4329.9141 -2.827631e-01  4.668665e+03
4330.2518 -3.689902e-01  4.443442e+03
4330.5894 -3.927383e-01  4.383413e+03
4330.9271 -3.133402e-01  4.596091e+03
4331.2648 -3.673037e-01  4.456198e+03
4331.6025 -3.907931e-01  4.396883e+03
4331.9401 -4.445470e-01  4.257565e+03
4332.2778 -4.783691e-01  4.170953e+03
4332.6155 -4.967273e-01  4.125233e+03
4332.9531 -4.437656e-01  4.268079e+03
4333.2908 -5.112870e-01  4.092402e+03
4333.6285 -5.918993e-01  3.882125e+03
4333.9661 -6.222523e-01  3.804732e+03
4334.3038 -6.676292e-01  3.687629e+03
4334.6415 -6.689117e-01  3.687112e+03
4334.9792 -6.901115e-01  3.633947e+03
4335.3168 -7.844170e-01  3.387514e+03
4335.6545 -7.851759e-01  3.388408e+03
4335.9922 -7.857876e-01  3.389701e+03
4336.3298 -8.361260e-01  3.259535e+03
4336.6675 -9.173675e-01  3.047676e+03
4337.0052 -9.250018e-01  3.030428e+03
4337.3429 -9.987819e-01  2.838313e+03
4337.6805 -1.064467e+00  2.667606e+03
4338.0182 -1.072375e+00  2.649661e+03
4338.3559 -1.122959e+00  2.518897e+03
4338.6935 -1.207882e+00  2.297355e+03
4339.0312 -1.226347e+00  2.251524e+03
4339.3689 -1.249185e+00  2.194137e+03
4339.7066 -1.319958e+00  2.010028e+03
4340.0442 -1.349303e+00  1.935455e+03
4340.3819 -1.366984e+00  1.891728e+03
4340.7196 -1.347868e+00  1.945289e+03
4341.0572 -1.341764e+00  1.964457e+03
4341.3949 -1.375057e+00  1.879477e+03
4341.7326 -1.305165e+00  2.067302e+03
4342.0702 -1.258898e+00  2.192675e+03
4342.4079 -1.182481e+00  2.397766e+03
4342.7456 -1.187915e+00  2.386464e+03
4343.0833 -1.162986e+00  2.455444e+03
4343.4209 -1.115352e+00  2.584459e+03
4343.7586 -1.071106e+00  2.704524e+03
4344.0963 -9.898226e-01  2.922512e+03
4344.4339 -9.880660e-01  2.930255e+03
4344.7716 -9.611985e-01  3.004392e+03
4345.1093 -8.797051e-01  3.222955e+03
4345.4470 -8.037772e-01  3.426810e+03
4345.7846 -7.870841e-01  3.474066e+03
4346.1223 -7.388119e-01  3.604816e+03
4346.4600 -7.868500e-01  3.480948e+03
4346.7976 -6.844798e-01  3.754733e+03
4347.1353 -6.756406e-01  3.781248e+03
4347.4730 -7.099161e-01  3.693781e+03
4347.8107 -6.344162e-01  3.896543e+03
4348.1483 -6.381750e-01  3.889766e+03
4348.4860 -6.544276e-01  3.849963e+03
4348.8237 -5.260313e-01  4.192588e+03
4349.1613 -4.666641e-01  4.352718e+03
4349.4990 -4.729066e-01  4.339395e+03
4349.8367 -4.457394e-01  4.414404e+03
4350.1743 -4.118737e-01  4.507127e+03
4350.5120 -3.866425e-01  4.577027e+03
4350.8497 -3.968049e-01  4.553357e+03
4351.1874 -3.805202e-01  4.599613e+03
4351.5250 -3.393880e-01  4.711564e+03
4351.8627 -3.466012e-01  4.695704e+03
4352.2004 -3.455338e-01  4.701739e+03
4352.5380 -3.821566e-01  4.608134e+03
4352.8757 -3.321887e-01  4.743460e+03
4353.2134 -3.212192e-01  4.775686e+03
4353.5511 -3.117818e-01  4.803864e+03
4353.8887 -2.560634e-01  4.954404e+03
4354.2264 -2.475591e-01  4.980122e+03
4354.5641 -2.215607e-01  5.052094e+03
4354.9017 -2.105256e-01  5.084510e+03
4355.2394 -1.534708e-01  5.238595e+03
4355.5771 -1.390297e-01  5.280021e+03
4355.9147 -1.346245e-01  5.294916e+03
4356.2524 -1.278853e-01  5.315985e+03
4356.5901 -1.658969e-01  5.218744e+03
4356.9278 -1.020037e-01  5.390921e+03
4357.2654 -1.383619e-01  5.298057e+03
4357.6031 -1.433494e-01  5.288132e+03
4357.9408 -1.033472e-01  5.397153e+03
4358.2784 -1.224168e-01  5.350002e+03
4358.6161 -1.264329e-01  5.342651e+03
4358.9538 -1.898510e-01  5.178256e+03
4359.2915 -1.594493e-01  5.261902e+03
4359.6291 -1.046785e-01  5.409978e+03
4359.9668 -7.956463e-02  5.479647e+03
4360.3045 -9.823004e-02  5.433575e+03
4360.6421 -4.290626e-02  5.583117e+03
4360.9798 -7.761791e-02  5.494624e+03
4361.3175 -1.192590e-01  5.387812e+03
4361.6552 -1.176637e-01  5.395310e+03
4361.9928 -6.260777e-02  5.544148e+03
4362.3305  1.046579e-02  5.740622e+03
4362.6682  3.922691e-02  5.819943e+03
4363.0058 -9.761746e-02  5.461438e+03
4363.3435 -4.007559e-02  5.616851e+03
4363.6812 -4.466194e-02  5.608010e+03
4364.0188 -4.490363e-02  5.610656e+03
4364.3565 -4.252065e-02  5.620241e+03
4364.6942 -6.472528e-02  5.564822e+03
4365.0319 -1.963028e-02  5.687330e+03
4365.3695  1.897452e-02  5.792679e+03
4365.7072  1.590490e-02  5.787850e+03
4366.0449 -1.702693e-02  5.704070e+03
4366.3825 -2.024071e-02  5.698859e+03
4366.7202 -5.128399e-03  5.742099e+03
4367.0579 -6.534219e-03  5.741667e+03
4367.3956 -3.641548e-02  5.665952e+03
4367.7332 -7.198277e-02  5.575203e+03
4368.0709 -5.370459e-02  5.626811e+03
4368.4086 -5.894488e-02  5.616239e+03
4368.7462 -3.857144e-02  5.673385e+03
4369.0839 -4.935941e-02  5.648145e+03
4369.4216 -4.539296e-02  5.661912e+03
4369.7592 -3.929207e-02  5.681321e+03
4370.0969  3.482969e-03  5.797688e+03
4370.4346  3.349602e-02  5.880314e+03
4370.7723  8.544843e-03  5.817625e+03
4371.1099  4.096327e-02  5.906608e+03
4371.4476 -1.733749e-03  5.797000e+03
4371.7853  2.425480e-02  5.868980e+03
4372.1229 -1.801674e-02  5.760494e+03
4372.4606  2.853680e-02  5.886842e+03
4372.7983  2.152326e-02  5.871567e+03
4373.1360  2.579227e-02  5.886120e+03
4373.4736  1.359226e-02  5.857130e+03
4373.8113 -8.346409e-02  5.603796e+03
4374.1490 -5.765719e-02  5.675285e+03
4374.4866 -3.144768e-02  5.747837e+03
4374.8243  2.221221e-02  5.892960e+03
4375.1620 -1.730828e-02  5.791731e+03
4375.4997 -7.509930e-02  5.642196e+03
4375.8373 -1.729484e-02  5.798271e+03
4376.1750  1.726212e-02  5.892881e+03
4376.5127  2.199739e-02  5.908646e+03
4376.8503  4.232742e-02  5.965639e+03
4377.1880  5.904618e-02  6.013082e+03
4377.5257  2.148067e-02  5.917006e+03
4377.8633  1.662457e-02  5.907404e+03
4378.2010  2.459056e-02  5.931699e+03
4378.5387 -4.636024e-02  5.747352e+03
4378.8764 -5.062943e-02  5.739294e+03
4379.2140  3.029884e-02  5.956479e+03
4379.5517  5.359029e-02  6.021280e+03
4379.8894  5.610726e-02  6.031156e+03
4380.2270  2.042913e-02  5.940048e+03
4380.5647  3.334311e-02  5.977406e+03
4380.9024  1.801419e-02  5.940092e+03
4381.2401  9.884287e-02  6.156996e+03
4381.5777  2.983069e-02  5.977749e+03
4381.9154 -1.101485e-02  5.872965e+03
4382.2531 -1.417023e-02  5.867823e+03
4382.5907  5.900991e-03  5.924085e+03
4382.9284  2.976913e-02  5.990382e+03
4383.2661 -4.188139e-02  5.804144e+03
4383.6037 -4.324438e-02  5.803728e+03
4383.9414 -4.281670e-02  5.808043e+03
4384.2791 -4.642620e-02  5.801682e+03
4384.6168 -6.593601e-02  5.753280e+03
4384.9544 -6.031590e-02  5.771313e+03
4385.2921 -7.285539e-02  5.741333e+03
4385.6298  8.241942e-04  5.939295e+03
4385.9674  1.738214e-02  5.986235e+03
4386.3051 -6.359417e-02  5.775312e+03
4386.6428 -4.863614e-02  5.818015e+03
4386.9805 -3.857164e-06  5.949743e+03
4387.3181 -3.423906e-02  5.862383e+03
4387.6558  1.408619e-02  5.993292e+03
4387.9935  3.079730e-02  6.040616e+03
4388.3311  5.369705e-02  6.104298e+03
4388.6688  8.845615e-03  5.988856e+03
4389.0065 -2.290687e-03  5.962547e+03
4389.3442  5.256834e-02  6.110712e+03
4389.6818  6.794679e-02  6.154495e+03
4390.0195 -2.005176e-02  5.924966e+03
4390.3572 -5.064075e-03  5.967708e+03
4390.6948  7.775602e-03  6.004768e+03
4391.0325 -4.323023e-02  5.873029e+03
4391.3702 -2.217421e-03  5.984565e+03
4391.7078  2.058940e-02  6.047964e+03
4392.0455  1.518229e-02  6.036768e+03
4392.3832 -8.712272e-03  5.976691e+03
4392.7209 -1.381750e-02  5.966285e+03
4393.0585 -5.487544e-03  5.991396e+03
4393.3962  8.490279e-04  6.011232e+03
4393.7339  1.104853e-03  6.014988e+03
4394.0715 -5.827315e-02  5.861081e+03
4394.4092 -1.581808e-02  5.976396e+03
4394.7469 -1.043543e-03  6.018525e+03
4395.0846 -1.355016e-03  6.020767e+03
4395.4222 -8.977627e-02  5.790060e+03
4395.7599 -5.177935e-02  5.893573e+03
4396.0976  2.521744e-03  6.040187e+03
4396.4352 -5.760478e-03  6.021340e+03
4396.7729  1.154857e-02  6.070147e+03
4397.1106  1.907625e-02  6.093090e+03
4397.4482  4.426002e-02  6.162709e+03
4397.7859 -3.796179e-02  5.948365e+03
4398.1236  3.302302e-02  6.139065e+03
4398.4613  4.496999e-02  6.173677e+03
4398.7989  6.385363e-03  6.074689e+03
4399.1366  1.411228e-02  6.098137e+03
4399.4743  1.339368e-02  6.099252e+03
4399.8119  4.386979e-02  6.182836e+03
4400.1496  2.408393e-02  6.133534e+03
4400.4873  4.126797e-03  6.083775e+03
4400.8250 -2.907023e-02  5.999009e+03
4401.1626 -4.746613e-02  5.953370e+03
4401.5003  1.582728e-02  6.123698e+03
4401.8380  4.781337e-02  6.211251e+03
4402.1756  8.582135e-02  6.314722e+03
4402.5133  8.544929e-02  6.316720e+03
4402.8510  3.428701e-02  6.184436e+03
4403.1887  1.412005e-03  6.100495e+03
4403.5263 -1.420242e-02  6.062185e+03
4403.8640 -3.379499e-02  6.013353e+03
4404.2017 -7.054516e-02  5.919157e+03
4404.5393 -5.667821e-02  5.958778e+03
4404.8770 -4.448229e-02  5.993979e+03
4405.2147 -5.845665e-02  5.959986e+03
4405.5523  3.063528e-02  6.198477e+03
4405.8900  1.812571e-02  6.168351e+03
4406.2277  3.780270e-02  6.223315e+03
4406.5654 -1.019623e-02  6.099355e+03
4406.9030 -2.079929e-02  6.074259e+03
4407.2407 -2.277417e-03  6.126160e+03
4407.5784 -4.252861e-04  6.133986e+03
4407.9160 -1.436451e-03  6.134239e+03
4408.2537  1.353995e-02  6.176757e+03
4408.5914 -1.236619e-02  6.111186e+03
4408.9291 -9.875146e-03  6.120688e+03
4409.2667  4.342144e-02  6.264507e+03
4409.6044  6.353100e-03  6.169417e+03
4409.9421  7.463432e-03  6.175259e+03
4410.2797 -9.379476e-03  6.133634e+03
4410.6174  4.114180e-02  6.270104e+03
4410.9551 -5.701077e-03  6.149159e+03
4411.2928  4.751059e-02  6.292735e+03
4411.6304  2.214579e-02  6.228568e+03
4411.9681  6.620311e-02  6.347936e+03
4412.3058 -2.469193e-03  6.169267e+03
4412.6434  3.074326e-02  6.259958e+03
4412.9811  5.505547e-02  6.327116e+03
4413.3188 -2.496157e-02  6.118445e+03
4413.6564  4.968524e-03  6.200450e+03
4413.9941  1.248849e-02  6.223205e+03
4414.3318 -9.412507e-03  6.168173e+03
4414.6695  3.362221e-02  6.284816e+03
4415.0071 -1.806670e-02  6.151027e+03
4415.3448  6.126968e-03  6.217853e+03
4415.6825  1.002435e-01  6.469539e+03
4416.0201  2.711026e-02  6.279047e+03
4416.3578  1.447016e-02  6.248485e+03
4416.6955  9.091437e-03  6.237119e+03
4417.0332 -3.176452e-02  6.131955e+03
4417.3708 -5.316945e-02  6.078214e+03
4417.7085  1.656787e-02  6.265432e+03
4418.0462 -2.063026e-02  6.169933e+03
4418.3838 -3.516493e-02  6.134349e+03
4418.7215 -2.261598e-02  6.170366e+03
4419.0592  3.052216e-02  6.313691e+03
4419.3968  2.975409e-02  6.314498e+03
4419.7345  6.147303e-02  6.401191e+03
4420.0722  5.048399e-02  6.374971e+03
4420.4099  4.459877e-03  6.256124e+03
4420.7475  3.918779e-02  6.350767e+03
4421.0852  2.254609e-04  6.250586e+03
4421.4229  5.245376e-02  6.391494e+03
4421.7605  2.989364e-02  6.334674e+03
4422.0982  3.877433e-02  6.360976e+03
4422.4359  4.148289e-02  6.370958e+03
4422.7736  5.242989e-02  6.402720e+03
4423.1112  2.321100e-02  6.328290e+03
4423.4489  3.300588e-03  6.278468e+03
4423.7866 -1.322220e-03  6.269062e+03
4424.1242  4.378010e-02  6.391118e+03
4424.4619  3.541457e-02  6.371815e+03
4424.7996  6.150641e-02  6.443609e+03
4425.1373  4.587513e-02  6.405094e+03
4425.4749  1.553319e-02  6.327687e+03
4425.8126  7.594908e-02  6.490223e+03
4426.1503  1.393457e-02  6.329078e+03
4426.4879  5.627699e-03  6.309923e+03
4426.8256  4.089454e-02  6.405968e+03
4427.1633  2.828410e-02  6.375435e+03
4427.5009  3.985016e-02  6.408818e+03
4427.8386 -5.518078e-03  6.291678e+03
4428.1763 -5.988211e-02  6.150754e+03
4428.5140  6.990489e-02  6.496688e+03
4428.8516 -4.805150e-02  6.187637e+03
4429.1893 -6.076137e-02  6.156837e+03
4429.5270 -3.994072e-02  6.214684e+03
4429.8646  2.622058e-02  6.392402e+03
4430.2023  4.122324e-02  6.434867e+03
4430.5400  4.801583e-02  6.455626e+03
4430.8777  4.159663e-03  6.342479e+03
4431.2153 -1.714327e-02  6.288959e+03
4431.5530  7.429017e-03  6.356723e+03
4431.8907  1.440728e-02  6.377972e+03
4432.2283  1.700675e-02  6.387645e+03
4432.5660  3.139254e-02  6.428478e+03
4432.9037 -2.481828e-02  6.282667e+03
4433.2413 -9.593148e-03  6.325720e+03
4433.5790  4.438149e-04  6.355056e+03
4433.9167 -6.058998e-02  6.196495e+03
4434.2544  1.798428e-02  6.407030e+03
4434.5920  6.995244e-02  6.547225e+03
4434.9297 -3.452028e-02  6.273821e+03
4435.2674 -1.841778e-02  6.319195e+03
4435.6050 -8.785673e-02  6.138415e+03
4435.9427 -1.826709e-02  6.325198e+03
4436.2804 -4.048632e-03  6.365592e+03
4436.6181  4.111707e-02  6.487805e+03
4436.9557  1.034694e-02  6.409260e+03
4437.2934  2.050298e-02  6.438916e+03
4437.6311  1.846960e-02  6.436346e+03
4437.9687  8.008598e-02  6.602054e+03
4438.3064 -7.207274e-03  6.374076e+03
4438.6441  3.654437e-02  6.492555e+03
4438.9818  4.486154e-02  6.517353e+03
4439.3194  3.410638e-02  6.491729e+03
4439.6571  6.052845e-02  6.564395e+03
4439.9948  7.917155e-02  6.616496e+03
4440.3324  4.111146e-02  6.518687e+03
4440.6701 -5.793650e-03  6.397494e+03
4441.0078  3.819676e-02  6.516611e+03
4441.3454  7.867448e-02  6.626443e+03
4441.6831 -7.992359e-04  6.419149e+03
4442.0208 -1.261858e-03  6.420746e+03
4442.3585  3.562972e-02  6.521101e+03
4442.6961  1.239663e-02  6.462500e+03
4443.0338 -9.435400e-03  6.407604e+03
4443.3715  2.834717e-03  6.442870e+03
4443.7091 -5.170015e-03  6.424534e+03
4444.0468 -2.050178e-02  6.386828e+03
4444.3845 -4.661760e-02  6.320613e+03
4444.7222 -2.862986e-02  6.371001e+03
4445.0598  3.620636e-03  6.459098e+03
4445.3975  2.925675e-02  6.529710e+03
4445.7352  3.699748e-02  6.553012e+03
4446.0728  3.454877e-02  6.549376e+03
4446.4105  1.125770e-01  6.758508e+03
4446.7482  1.564208e-01  6.877264e+03
4447.0858  9.388316e-02  6.714771e+03
4447.4235 -2.477214e-02  6.403917e+03
4447.7612  1.442471e-02  6.510394e+03
4448.0989  5.172535e-02  6.611859e+03
4448.4365  1.078687e-01  6.763143e+03
4448.7742  4.036639e-02  6.587534e+03
4449.1119  1.708033e-02  6.528827e+03
4449.4495 -6.139679e-03  6.470296e+03
4449.7872  5.890986e-03  6.504963e+03
4450.1249  3.682398e-02  6.589606e+03
4450.4626  8.329554e-02  6.715332e+03
4450.8002  1.700251e-02  6.542934e+03
4451.1379  3.569317e-03  6.510288e+03
4451.4756 -2.653959e-02  6.433558e+03
4451.8132 -1.465064e-02  6.467863e+03
4452.1509  4.871443e-02  6.638264e+03
4452.4886  9.313403e-03  6.536974e+03
4452.8263 -4.476098e-02  6.396893e+03
4453.1639 -2.904806e-02  6.441317e+03
4453.5016 -8.687823e-04  6.518703e+03
4453.8393  6.459451e-03  6.540965e+03
4454.1769  4.733042e-02  6.651910e+03
4454.5146  2.569600e-03  6.536464e+03
4454.8523 -7.997469e-03  6.511422e+03
4455.1899  1.326075e-02  6.570522e+03
4455.5276 -2.744102e-02  6.465815e+03
4455.8653  2.347549e-02  6.603331e+03
4456.2030  1.900307e-02  6.594412e+03
4456.5406 -1.184747e-02  6.515757e+03
4456.8783  4.079154e-03  6.560774e+03
4457.2160 -1.182253e-02  6.521646e+03
4457.5536 -2.219578e-02  6.497137e+03
4457.8913  1.088814e-02  6.587522e+03
4458.2290  6.303878e-02  6.728319e+03
4458.5667 -3.302072e-02  6.477280e+03
4458.9043  3.610920e-02  6.662972e+03
4459.2420  8.387992e-02  6.792196e+03
4459.5797  7.103238e-02  6.761161e+03
4459.9173 -7.379419e-03  6.556790e+03
4460.2550  1.760595e-02  6.625783e+03
4460.5927  2.661414e-02  6.652538e+03
4460.9303 -3.692522e-02  6.487494e+03
4461.2680  8.708749e-03  6.611085e+03
4461.6057 -1.157743e-02  6.560400e+03
4461.9434 -7.856287e-03  6.573188e+03
4462.2810  2.173606e-02  6.654376e+03
4462.6187  6.029950e-03  6.615807e+03
4462.9564 -6.010899e-02  6.443907e+03
4463.2940  6.241114e-03  6.622283e+03
4463.6317  4.769872e-02  6.734852e+03
4463.9694  7.714343e-03  6.632106e+03
4464.3071 -1.263005e-02  6.581288e+03
4464.6447  2.720449e-02  6.689573e+03
4464.9824  3.327516e-02  6.708596e+03
4465.3201  4.170020e-02  6.733846e+03
4465.6577  6.495758e-02  6.798312e+03
4465.9954  1.749558e-01  7.092106e+03
4466.3331  8.306020e-03  6.654502e+03
4466.6708  6.061380e-02  6.795779e+03
4467.0084  2.139817e-02  6.695090e+03
4467.3461 -3.365294e-02  6.552537e+03
4467.6838  4.548911e-03  6.656529e+03
4468.0214 -1.802056e-03  6.642734e+03
4468.3591 -3.444375e-02  6.559435e+03
4468.6968 -2.483296e-02  6.587845e+03
4469.0344 -2.895788e-02  6.579943e+03
4469.3721 -2.708758e-02  6.587894e+03
4469.7098 -2.144684e-02  6.605815e+03
4470.0475 -2.090036e-02  6.610271e+03
4470.3851 -6.198540e-02  6.504664e+03
4470.7228 -4.683305e-02  6.547739e+03
4471.0605 -7.784796e-03  6.653992e+03
4471.3981 -4.481557e-02  6.559110e+03
4471.7358 -4.323215e-02  6.566319e+03
4472.0735 -2.607047e-02  6.614715e+03
4472.4112 -5.535881e-02  6.540310e+03
4472.7488 -2.535197e-02  6.622670e+03
4473.0865  3.323475e-02  6.780593e+03
4473.4242  1.879468e-02  6.745449e+03
4473.7618 -5.157750e-02  6.562435e+03
4474.0995  5.207588e-02  6.839510e+03
4474.4372  3.493943e-02  6.797244e+03
4474.7748 -4.335948e-02  6.593279e+03
4475.1125 -1.238882e-03  6.707680e+03
4475.4502  2.346313e-02  6.776032e+03
4475.7879 -5.107803e-02  6.582007e+03
4476.1255 -4.194265e-02  6.609208e+03
4476.4632  1.299261e-02  6.757496e+03
4476.8009  6.107376e-02  6.887665e+03
4477.1385  4.634492e-02  6.851779e+03
4477.4762  6.947061e-03  6.750674e+03
4477.8139  3.113197e-02  6.817671e+03
4478.1516 -3.991353e-03  6.727871e+03
4478.4892 -1.618920e-02  6.698683e+03
4478.8269 -1.069991e-02  6.716257e+03
4479.1646 -4.689074e-02  6.623639e+03
4479.5022 -3.289111e-02  6.663715e+03
4479.8399 -9.408603e-02  6.504994e+03
4480.1776 -1.383995e-01  6.390905e+03
4480.5153 -2.361689e-01  6.135491e+03
4480.8529 -1.767341e-01  6.295694e+03
4481.1906 -2.473727e-01  6.112011e+03
4481.5283 -2.475886e-01  6.114512e+03
4481.8659 -2.840942e-01  6.021071e+03
4482.2036 -2.377856e-01  6.146575e+03
4482.5413 -1.434952e-01  6.398935e+03
4482.8789 -1.185901e-01  6.467854e+03
4483.2166 -1.405818e-02  6.747292e+03
4483.5543  1.094936e-02  6.816483e+03
4483.8920  1.661357e-02  6.834536e+03
4484.2296  1.828737e-03  6.798526e+03
4484.5673 -3.674750e-03  6.787055e+03
4484.9050  2.643263e-02  6.869732e+03
4485.2426 -4.923859e-02  6.672753e+03
4485.5803  5.265169e-02  6.945210e+03
4485.9180  5.374246e-02  6.951175e+03
4486.2557  3.663642e-02  6.909031e+03
4486.5933  6.501118e-02  6.987129e+03
4486.9310  4.752400e-02  6.943978e+03
4487.2687  9.979167e-03  6.847798e+03
4487.6063 -6.634823e-03  6.806955e+03
4487.9440  1.217648e-02  6.859770e+03
4488.2817 -2.801968e-02  6.756580e+03
4488.6194  8.474273e-03  6.856144e+03
4488.9570  1.236069e-02  6.869499e+03
4489.2947 -4.667145e-02  6.716510e+03
4489.6324  3.427042e-02  6.933584e+03
4489.9700  5.659742e-02  6.995691e+03
4490.3077 -3.082739e-02  6.767637e+03
4490.6454  4.760940e-03  6.864803e+03
4490.9830 -2.695679e-04  6.854581e+03
4491.3207  3.415526e-04  6.859273e+03
4491.6584 -4.652699e-03  6.849146e+03
4491.9961 -2.324399e-02  6.803069e+03
4492.3337 -2.019374e-02  6.814207e+03
4492.6714 -4.946760e-02  6.739886e+03
4493.0091  4.464294e-03  6.885542e+03
4493.3467 -1.587470e-02  6.834841e+03
4493.6844  2.052892e-02  6.934154e+03
4494.0221 -1.720000e-05  6.882902e+03
4494.3598  4.677774e-02  7.009685e+03
4494.6974  4.539704e-02  7.009099e+03
4495.0351  1.649012e-02  6.935738e+03
4495.3728 -3.140999e-02  6.812162e+03
4495.7104  1.000854e-01  7.162869e+03
4496.0481  7.815716e-02  7.107953e+03
4496.3858  3.698666e-02  7.002162e+03
4496.7234 -4.242191e-02  6.795276e+03
4497.0611  6.477521e-03  6.927608e+03
4497.3988 -9.283996e-03  6.888987e+03
4497.7365  1.006738e-02  6.943196e+03
4498.0741  6.117195e-03  6.935797e+03
4498.4118  2.889027e-02  6.999047e+03
4498.7495 -1.450332e-03  6.921873e+03
4499.0871  3.389685e-02  7.018361e+03
4499.4248  1.919276e-02  6.982521e+03
4499.7625 -2.659609e-02  6.864497e+03
4500.1002 -1.015684e-02  6.910988e+03
4500.4378 -7.162113e-04  6.938974e+03
4500.7755  2.130587e-02  7.000219e+03
4501.1132  3.777160e-03  6.956896e+03
4501.4508 -3.488046e-02  6.857710e+03
4501.7885 -1.918202e-02  6.902228e+03
4502.1262 -8.087915e-02  6.742123e+03
4502.4639 -2.419704e-02  6.894986e+03
4502.8015 -1.120942e-02  6.932326e+03
4503.1392  4.887499e-02  7.094176e+03
4503.4769  4.164025e-02  7.078045e+03
4503.8145  1.145043e-02  7.001221e+03
4504.1522  3.773474e-02  7.073700e+03
4504.4899  5.283796e-03  6.990890e+03
4504.8275 -7.268322e-02  6.787741e+03
4505.1652  2.076431e-02  7.037773e+03
4505.5029  3.079055e-02  7.067252e+03
4505.8406  1.347740e-02  7.024447e+03
4506.1782 -2.335335e-02  6.930037e+03
4506.5159  1.724864e-02  7.040339e+03
4506.8536 -2.469307e-02  6.932407e+03
4507.1912 -7.843963e-02  6.793261e+03
4507.5289  9.104638e-03  7.027655e+03
4507.8666 -7.532145e-03  6.986610e+03
4508.2043 -1.822190e-02  6.961283e+03
4508.5419 -2.289644e-02  6.951854e+03
4508.8796 -8.680408e-02  6.785819e+03
4509.2173 -2.498671e-02  6.952170e+03
4509.5549 -6.908600e-03  7.002879e+03
4509.8926 -5.343777e-02  6.882773e+03
4510.2303 -5.892171e-02  6.871178e+03
4510.5679 -2.408141e-02  6.966186e+03
4510.9056 -1.447160e-02  6.994483e+03
4511.2433 -9.159261e-04  7.033208e+03
4511.5810 -2.342160e-02  6.976587e+03
4511.9186 -4.534362e-02  6.921503e+03
4512.2563 -3.758636e-02  6.944880e+03
4512.5940  1.763930e-02  7.093747e+03
4512.9316  2.937271e-03  7.057733e+03
4513.2693 -1.588206e-02  7.010828e+03
4513.6070 -8.644302e-02  6.827122e+03
4513.9447 -5.965178e-02  6.900789e+03
4514.2823  7.460549e-03  7.081050e+03
4514.6200 -2.536999e-02  6.997076e+03
4514.9577 -4.395899e-02  6.950747e+03
4515.2953 -4.697425e-02  6.945585e+03
4515.6330 -7.893290e-02  6.863896e+03
4515.9707 -8.808937e-02  6.842483e+03
4516.3084 -4.928562e-02  6.947861e+03
4516.6460  1.097398e-02  7.109957e+03
4516.9837 -5.081878e-02  6.949364e+03
4517.3214 -4.939219e-02  6.955902e+03
4517.6590  3.694266e-03  7.099012e+03
4517.9967 -1.477447e-03  7.088091e+03
4518.3344 -2.059921e-02  7.040281e+03
4518.6720  2.801852e-03  7.104886e+03
4519.0097 -2.057081e-02  7.045822e+03
4519.3474 -4.416879e-02  6.986155e+03
4519.6851 -5.287428e-03  7.091663e+03
4520.0227  9.260984e-03  7.132832e+03
4520.3604  3.733318e-02  7.209746e+03
4520.6981 -1.003004e-01  6.848560e+03
4521.0357 -6.852026e-02  6.935261e+03
4521.3734 -3.787414e-02  7.018956e+03
4521.7111  1.669412e-03  7.126166e+03
4522.0488 -8.432532e-02  6.901469e+03
4522.3864 -3.125701e-02  7.044418e+03
4522.7241 -2.402755e-02  7.066170e+03
4523.0618 -4.477147e-03  7.120487e+03
4523.3994  5.696936e-03  7.150007e+03
4523.7371 -3.018421e-02  7.057757e+03
4524.0748 -2.540153e-02  7.073005e+03
4524.4124 -2.928329e-02  7.065337e+03
4524.7501  5.487185e-02  7.290412e+03
4525.0878 -1.027522e-02  7.120752e+03
4525.4255 -3.157800e-03  7.142137e+03
4525.7631  1.337618e-02  7.188407e+03
4526.1008  3.971035e-02  7.260578e+03
4526.4385  4.819895e-02  7.285560e+03
4526.7761  1.991394e-02  7.213310e+03
4527.1138 -1.867092e-02  7.113819e+03
4527.4515 -6.355116e-02  6.997676e+03
4527.7892  4.729493e-02  7.293231e+03
4528.1268  6.522084e-02  7.343115e+03
4528.4645  9.869870e-02  7.434105e+03
4528.8022 -5.846933e-03  7.160180e+03
4529.1398  9.180552e-03  7.202371e+03
4529.4775  6.935340e-02  7.363908e+03
4529.8152  6.942215e-02  7.366531e+03
4530.1529  2.089778e-02  7.240674e+03
4530.4905  2.540858e-02  7.255021e+03
4530.8282  4.451906e-02  7.307957e+03
4531.1659  6.634226e-02  7.368054e+03
4531.5035  6.138996e-02  7.357352e+03
4531.8412  3.655627e-02  7.294077e+03
4532.1789 -5.603611e-03  7.184985e+03
4532.5165  3.273788e-02  7.288711e+03
4532.8542 -3.299575e-02  7.117274e+03
4533.1919  6.146424e-03  7.223096e+03
4533.5296  7.139121e-03  7.228048e+03
4533.8672 -2.065555e-02  7.156882e+03
4534.2049  1.027804e-02  7.240970e+03
4534.5426 -7.069480e-03  7.197402e+03
4534.8802 -2.978607e-02  7.139629e+03
4535.2179 -4.655081e-02  7.097580e+03
4535.5556 -1.391958e-02  7.186113e+03
4535.8933  1.217170e-02  7.257345e+03
4536.2309 -5.122002e-02  7.091991e+03
4536.5686 -3.632273e-02  7.133606e+03
4536.9063 -3.383751e-03  7.222909e+03
4537.2439  2.523050e-02  7.300767e+03
4537.5816  2.620578e-02  7.305542e+03
4537.9193 -1.384547e-02  7.201840e+03
4538.2569  5.305503e-02  7.380885e+03
4538.5946  4.726883e-02  7.367750e+03
4538.9323  4.847796e-02  7.373099e+03
4539.2700  3.689646e-02  7.344620e+03
4539.6076  6.344043e-02  7.416925e+03
4539.9453  5.201917e-02  7.388847e+03
4540.2830 -1.087143e-02  7.224683e+03
4540.6206  1.366426e-02  7.291645e+03
4540.9583  5.392967e-02  7.400182e+03
4541.2960 -8.706528e-03  7.236656e+03
4541.6337 -2.572360e-02  7.193726e+03
4541.9713  3.740963e-02  7.362686e+03
4542.3090  1.327432e-02  7.300914e+03
4542.6467 -1.148806e-02  7.237473e+03
4542.9843  5.082981e-02  7.404242e+03
4543.3220  9.940860e-02  7.534677e+03
4543.6597  9.439365e-02  7.523409e+03
4543.9974  6.391075e-02  7.444797e+03
4544.3350  1.663901e-02  7.321787e+03
4544.6727  1.324674e-01  7.629969e+03
4545.0104  3.381854e-02  7.371105e+03
4545.3480  5.755651e-02  7.435796e+03
4545.6857  6.919702e-03  7.303843e+03
4546.0234  2.829309e-02  7.362258e+03
4546.3610  1.932554e-02  7.340447e+03
4546.6987 -1.167921e-03  7.288151e+03
4547.0364  1.526597e-02  7.333473e+03
4547.3741 -7.563979e-03  7.274977e+03
4547.7117 -3.970023e-02  7.191865e+03
4548.0494  3.698656e-02  7.396447e+03
4548.3871 -8.784028e-02  7.068257e+03
4548.7247 -7.307428e-02  7.109110e+03
4549.0624 -1.514826e-01  6.903617e+03
4549.4001 -1.896014e-01  6.804630e+03
4549.7378 -1.288476e-01  6.967030e+03
4550.0754 -1.046674e-01  7.032726e+03
4550.4131 -1.235409e-01  6.984584e+03
4550.7508 -1.101750e-01  7.021665e+03
4551.0884 -3.289316e-02  7.227715e+03
4551.4261 -4.734716e-04  7.315147e+03
4551.7638  4.028990e-02  7.424627e+03
4552.1015 -2.891013e-03  7.312163e+03
4552.4391 -1.640642e-02  7.278117e+03
4552.7768  3.794518e-02  7.423486e+03
4553.1145  1.149829e-02  7.355229e+03
4553.4521  8.539750e-02  7.552255e+03
4553.7898  2.451608e-03  7.334603e+03
4554.1275 -3.069398e-02  7.248601e+03
4554.4651 -5.146768e-02  7.195296e+03
4554.8028 -2.736066e-02  7.260635e+03
4555.1405  1.946193e-02  7.386019e+03
4555.4782 -7.105485e-02  7.148293e+03
4555.8158 -1.033553e-02  7.310394e+03
4556.1535  3.821446e-02  7.440310e+03
4556.4912 -6.886012e-02  7.158774e+03
4556.8288 -5.952480e-02  7.184992e+03
4557.1665  1.051221e-02  7.371682e+03
4557.5042 -4.172955e-02  7.235080e+03
4557.8419 -2.698615e-02  7.275562e+03
4558.1795 -1.220659e-02  7.316128e+03
4558.5172  1.127197e-02  7.379682e+03
4558.8549 -5.568470e-02  7.204132e+03
4559.1925 -1.020925e-01  7.082898e+03
4559.5302 -2.318191e-02  7.292970e+03
4559.8679 -3.575561e-02  7.261165e+03
4560.2055  5.395779e-03  7.371387e+03
4560.5432  1.231787e-05  7.358569e+03
4560.8809  4.473713e-02  7.478217e+03
4561.2186  1.010274e-01  7.628431e+03
4561.5562  1.489587e-01  7.756535e+03
4561.8939  5.552737e-02  7.510894e+03
4562.2316  5.903070e-02  7.521518e+03
4562.5692  9.581718e-02  7.620125e+03
4562.9069  9.142523e-02  7.609855e+03
4563.2446  1.593809e-02  7.411613e+03
4563.5823 -2.055075e-02  7.316464e+03
4563.9199  5.434364e-02  7.515779e+03
4564.2576  5.246727e-02  7.512118e+03
4564.5953  3.678239e-02  7.471940e+03
4564.9329  6.979967e-02  7.560510e+03
4565.2706  2.904603e-02  7.454035e+03
4565.6083  7.087023e-03  7.397239e+03
4565.9460 -3.746610e-03  7.369847e+03
4566.2836  4.721500e-02  7.505818e+03
4566.6213  3.348068e-02  7.470737e+03
4566.9590  1.071009e-01  7.666594e+03
4567.2966  1.426664e-01  7.761833e+03
4567.6343  8.136647e-02  7.600969e+03
4567.9720  1.144712e-01  7.689682e+03
4568.3096  9.602745e-02  7.642103e+03
4568.6473  1.146385e-01  7.692479e+03
4568.9850  1.151438e-01  7.694978e+03
4569.3227  1.176422e-01  7.702737e+03
4569.6603  6.862734e-02  7.574297e+03
4569.9980  1.222452e-01  7.717188e+03
4570.3357  1.918967e-02  7.445856e+03
4570.6733  3.195674e-02  7.480728e+03
4571.0110  3.655427e-02  7.493992e+03
4571.3487  2.212655e-02  7.456949e+03
4571.6864  5.107768e-02  7.534582e+03
4572.0240  7.428993e-03  7.420267e+03
4572.3617  1.550267e-03  7.405799e+03
4572.6994 -1.188149e-02  7.371355e+03
4573.0370 -1.394026e-02  7.366970e+03
4573.3747 -1.441574e-02  7.366763e+03
4573.7124 -1.488851e-02  7.366555e+03
4574.0500 -1.535715e-02  7.366350e+03
4574.3877 -1.582370e-02  7.366143e+03
4574.7254 -1.628730e-02  7.365935e+03
4575.0631 -1.674815e-02  7.365727e+03
4575.4007 -1.720630e-02  7.365519e+03
4575.7384 -1.766140e-02  7.365311e+03
4576.0761 -1.811331e-02  7.365104e+03
4576.4137 -1.856262e-02  7.364896e+03
4576.7514 -1.900919e-02  7.364688e+03
4577.0891 -1.945267e-02  7.364482e+03
4577.4268 -1.989421e-02  7.364273e+03
4577.7644 -2.033367e-02  7.364063e+03
4578.1021 -2.076906e-02  7.363857e+03
4578.4398 -2.120244e-02  7.363650e+03
4578.7774 -2.163347e-02  7.363442e+03
4579.1151 -2.206184e-02  7.363234e+03
4579.4528 -2.248758e-02  7.363027e+03
4579.7905 -2.291183e-02  7.362818e+03
4580.1281 -2.333242e-02  7.362612e+03
4580.4658 -2.375123e-02  7.362404e+03
4580.8035 -2.416812e-02  7.362196e+03
4581.1411 -2.458276e-02  7.361987e+03
4581.4788 -2.499501e-02  7.361779e+03
4581.8165 -2.540471e-02  7.361572e+03
4582.1541 -2.581228e-02  7.361365e+03
4582.4918 -2.621851e-02  7.361156e+03
4582.8295 -2.662230e-02  7.360948e+03
4583.1672 -2.702354e-02  7.360742e+03
4583.5048 -2.742355e-02  7.360533e+03
4583.8425 -2.782163e-02  7.360325e+03
4584.1802 -2.821708e-02  7.360118e+03
4584.5178 -2.861161e-02  7.359909e+03
4584.8555 -2.900360e-02  7.359702e+03
4585.1932 -2.939456e-02  7.359493e+03
4585.5309 -2.978398e-02  7.359284e+03
4585.8685 -3.017025e-02  7.359078e+03
4586.2062 -3.055599e-02  7.358870e+03
4586.5439 -3.093995e-02  7.358662e+03
4586.8815 -3.132217e-02  7.358454e+03
4587.2192 -3.170324e-02  7.358246e+03
4587.5569 -3.208285e-02  7.358037e+03
4587.8945 -3.246066e-02  7.357830e+03
4588.2322 -3.283763e-02  7.357621e+03
4588.5699 -3.321271e-02  7.357413e+03
4588.9076 -3.358704e-02  7.357204e+03
4589.2452 -3.395937e-02  7.356997e+03
4589.5829 -3.433085e-02  7.356789e+03
4589.9206 -3.470153e-02  7.356580e+03
4590.2582 -3.501141e-02  7.356529e+03
4590.5959 -3.377510e-02  7.360562e+03
4590.9336 -2.467459e-02  7.385385e+03
4591.2713 -1.048673e-02  7.423654e+03
4591.6089  2.242443e-02  7.511422e+03
4591.9466  7.094542e-03  7.471647e+03
4592.2843 -1.064928e-02  7.425489e+03
4592.6219  2.202267e-03  7.460216e+03
4592.9596 -2.888096e-02  7.378786e+03
4593.2973 -6.936910e-02  7.272490e+03
4593.6350 -5.317057e-02  7.316060e+03
4593.9726 -4.337879e-02  7.342689e+03
4594.3103 -3.048600e-02  7.377516e+03
4594.6480  7.558372e-03  7.478837e+03
4594.9856  2.902354e-02  7.536324e+03
4595.3233  5.991458e-03  7.476168e+03
4595.6610 -1.736189e-02  7.415162e+03
4595.9986 -1.254840e-02  7.428622e+03
4596.3363 -7.106413e-02  7.274651e+03
4596.6740 -1.067523e-02  7.435040e+03
4597.0117  3.700643e-02  7.561832e+03
4597.3493  2.068592e-02  7.519414e+03
4597.6870  1.176225e-02  7.496552e+03
4598.0247  1.248453e-02  7.499191e+03
4598.3623  2.958779e-02  7.545138e+03
4598.7000 -5.834129e-04  7.466100e+03
4599.0377  3.336701e-03  7.477193e+03
4599.3754  1.668412e-02  7.513209e+03
4599.7130  4.311363e-02  7.583812e+03
4600.0507  1.252382e-01  7.801662e+03
4600.3884  1.442717e-01  7.852712e+03
4600.7260  9.531716e-02  7.724016e+03
4601.0637 -1.342866e-02  7.437244e+03
4601.4014  3.893852e-02  7.576422e+03
4601.7390  5.450482e-02  7.618308e+03
4602.0767  1.713775e-02  7.520249e+03
4602.4144  2.938697e-02  7.553366e+03
4602.7521  4.535974e-02  7.596328e+03
4603.0897  3.231908e-02  7.562586e+03
4603.4274 -3.783129e-04  7.476876e+03
4603.7651  7.820126e-04  7.480681e+03
4604.1027 -9.915992e-05  7.479090e+03
4604.4404 -3.277938e-02  7.393430e+03
4604.7781 -1.492344e-02  7.441378e+03
4605.1158  2.943446e-02  7.559395e+03
4605.4534  4.813302e-02  7.609574e+03
4605.7911 -1.716729e-02  7.437680e+03
4606.1288 -2.980782e-02  7.405009e+03
4606.4664  1.942112e-02  7.535910e+03
4606.8041  2.385030e-02  7.548372e+03
4607.1418  9.411195e-03  7.510952e+03
4607.4795 -5.423974e-03  7.472487e+03
4607.8171  2.362847e-02  7.550055e+03
4608.1548  4.690812e-02  7.612362e+03
4608.4925  1.615966e-02  7.531833e+03
4608.8301  2.097220e-02  7.545322e+03
4609.1678  2.082707e-02  7.545707e+03
4609.5055  3.173108e-02  7.575306e+03
4609.8431  1.803214e-02  7.539863e+03
4610.1808  1.751287e-02  7.539267e+03
4610.5185  1.330186e-02  7.528913e+03
4610.8562  2.412708e-04  7.495166e+03
4611.1938  2.187436e-02  7.553145e+03
4611.5315  4.424319e-02  7.613072e+03
4611.8692  8.036022e-02  7.709350e+03
4612.2068  4.348531e-02  7.612655e+03
4612.5445  2.139429e-02  7.555049e+03
4612.8822  1.524753e-02  7.539600e+03
4613.2199  9.921532e-03  7.526324e+03
4613.5575 -1.420922e-03  7.497146e+03
4613.8952  7.993639e-03  7.522848e+03
4614.2329  2.525725e-02  7.569305e+03
4614.5705  2.772883e-02  7.576658e+03
4614.9082  7.964221e-02  7.714729e+03
4615.2459  4.930312e-02  7.635346e+03
4615.5836 -3.763416e-03  7.495879e+03
4615.9212 -3.833772e-02  7.405306e+03
4616.2589 -4.875723e-02  7.378597e+03
4616.5966  8.855198e-04  7.510684e+03
4616.9342  1.464698e-02  7.547913e+03
4617.2719 -1.271398e-02  7.476426e+03
4617.6096 -2.259266e-02  7.451163e+03
4617.9472 -2.546320e-02  7.444432e+03
4618.2849 -2.059294e-02  7.458170e+03
4618.6226 -5.638177e-02  7.364418e+03
4618.9603 -3.583713e-02  7.419604e+03
4619.2979 -3.179092e-02  7.431177e+03
4619.6356 -6.451964e-02  7.345528e+03
4619.9733 -7.673357e-02  7.314120e+03
4620.3109 -7.375973e-02  7.322870e+03
4620.6486 -3.964411e-02  7.413957e+03
4620.9863 -1.949690e-02  7.468119e+03
4621.3240 -1.816622e-02  7.472538e+03
4621.6616 -2.356100e-02  7.459180e+03
4621.9993 -3.540441e-02  7.428778e+03
4622.3370 -4.785694e-02  7.396771e+03
4622.6746 -3.602155e-02  7.428979e+03
4623.0123  4.553053e-02  7.645510e+03
4623.3500  7.370938e-02  7.720937e+03
4623.6876  2.276636e-02  7.587186e+03
4624.0253 -1.897455e-02  7.477768e+03
4624.3630 -3.139571e-02  7.445870e+03
4624.7007  3.249687e-04  7.530678e+03
4625.0383  2.691216e-02  7.601919e+03
4625.3760  7.144865e-03  7.550613e+03
4625.7137 -3.201135e-02  7.448051e+03
4626.0513 -1.921687e-02  7.482841e+03
4626.3890 -2.164084e-02  7.477400e+03
4626.7267 -7.295064e-02  7.342720e+03
4627.0644 -6.641632e-02  7.360973e+03
4627.4020 -1.387368e-02  7.500866e+03
4627.7397  4.985113e-03  7.551711e+03
4628.0774 -7.009944e-03  7.520989e+03
4628.4150 -5.934227e-02  7.383627e+03
4628.7527 -7.640317e-02  7.339521e+03
4629.0904 -7.858051e-02  7.334768e+03
4629.4281 -7.614169e-02  7.342224e+03
4629.7657 -4.790284e-02  7.417894e+03
4630.1034 -5.098727e-02  7.410755e+03
4630.4411 -4.088649e-02  7.438480e+03
4630.7787 -6.056495e-02  7.387479e+03
4631.1164  4.895519e-04  7.549924e+03
4631.4541  4.350222e-02  7.664674e+03
4631.7917  2.232620e-02  7.609727e+03
4632.1294 -5.300890e-03  7.537728e+03
4632.4671  6.810291e-03  7.570792e+03
4632.8048  1.213466e-02  7.585918e+03
4633.1424 -3.994317e-02  7.449289e+03
4633.4801 -6.367800e-02  7.387596e+03
4633.8178 -2.818644e-02  7.482489e+03
4634.1554 -2.224995e-03  7.552191e+03
4634.4931 -3.779421e-03  7.549150e+03
4634.8308 -3.823303e-02  7.459134e+03
4635.1685 -5.402523e-03  7.547007e+03
4635.5061 -2.121056e-02  7.506293e+03
4635.8438 -4.460013e-02  7.445539e+03
4636.1815 -3.446913e-02  7.473409e+03
4636.5191 -7.251387e-03  7.546457e+03
4636.8568  4.454764e-02  7.684496e+03
4637.1945  3.827912e-02  7.669020e+03
4637.5321  1.034258e-02  7.596260e+03
4637.8698 -3.500246e-02  7.477479e+03
4638.2075 -2.074771e-02  7.516271e+03
4638.5452 -3.274950e-02  7.485649e+03
4638.8828 -3.175614e-02  7.489387e+03
4639.2205 -4.825519e-02  7.446880e+03
4639.5582 -1.486492e-02  7.536274e+03
4639.8958  5.888566e-02  7.732375e+03
4640.2335  7.491987e-02  7.775887e+03
4640.5712  1.670953e-02  7.623115e+03
4640.9089 -1.076734e-02  7.551598e+03
4641.2465  1.994162e-03  7.586465e+03
4641.5842  2.400337e-02  7.645783e+03
4641.9219  1.013259e-02  7.610244e+03
4642.2595  2.494039e-02  7.650527e+03
4642.5972  4.557704e-02  7.706223e+03
4642.9349  5.234658e-02  7.725258e+03
4643.2726  5.883774e-02  7.743559e+03
4643.6102  5.632788e-02  7.738064e+03
4643.9479  6.644175e-02  7.765945e+03
4644.2856  8.981344e-02  7.828879e+03
4644.6232  9.839755e-02  7.852718e+03
4644.9609  8.144206e-02  7.809037e+03
4645.2986  5.160912e-02  7.731312e+03
4645.6362  5.488810e-02  7.741128e+03
4645.9739  5.169198e-02  7.733826e+03
4646.3116  5.977243e-02  7.756338e+03
4646.6493  3.372987e-02  7.688636e+03
4646.9869  3.187485e-02  7.684881e+03
4647.3246  9.286993e-02  7.847289e+03
4647.6623  9.427664e-02  7.852158e+03
4647.9999  5.053237e-02  7.737656e+03
4648.3376 -9.750566e-03  7.579430e+03
4648.6753  3.095588e-02  7.688198e+03
4649.0130  2.554356e-02  7.675038e+03
4649.3506  2.692359e-03  7.615771e+03
4649.6883 -2.287348e-02  7.549328e+03
4650.0260 -7.800675e-03  7.590323e+03
4650.3636 -3.337688e-03  7.603268e+03
4650.7013 -1.909921e-02  7.562741e+03
4651.0390  1.305085e-03  7.617829e+03
4651.3766  3.989335e-02  7.720989e+03
4651.7143  4.870754e-02  7.745432e+03
4652.0520  2.005447e-02  7.670816e+03
4652.3897 -3.021022e-02  7.539062e+03
4652.7273 -2.711183e-02  7.548388e+03
4653.0650 -2.385966e-02  7.558117e+03
4653.4027 -4.509973e-02  7.503092e+03
4653.7403 -3.003186e-02  7.544055e+03
4654.0780  1.106752e-02  7.653837e+03
4654.4157 -1.548810e-04  7.625288e+03
4654.7534  1.907045e-02  7.677234e+03
4655.0910  2.492936e-02  7.693838e+03
4655.4287  1.204910e-02  7.660897e+03
4655.7664 -1.211837e-04  7.629829e+03
4656.1040 -2.837929e-02  7.556225e+03
4656.4417 -2.416516e-02  7.568466e+03
4656.7794 -7.263088e-04  7.631530e+03
4657.1171  1.726911e-02  7.680199e+03
4657.4547  1.728166e-02  7.681320e+03
4657.7924 -1.756382e-02  7.590279e+03
4658.1301 -1.410482e-02  7.600502e+03
4658.4677 -1.495579e-03  7.634913e+03
4658.8054  1.187500e-02  7.671331e+03
4659.1431  3.948974e-03  7.651439e+03
4659.4807  2.002739e-02  7.695006e+03
4659.8184  8.454213e-02  7.866623e+03
4660.1561  1.044008e-01  7.920172e+03
4660.4938  5.548996e-02  7.791903e+03
4660.8314  8.841119e-03  7.669608e+03
4661.1691  9.983927e-03  7.673658e+03
4661.5068  7.756285e-02  7.853346e+03
4661.8444  7.849596e-02  7.856829e+03
4662.1821  2.377087e-02  7.713156e+03
4662.5198  8.730242e-02  7.882123e+03
4662.8575  4.935319e-02  7.782788e+03
4663.1951 -2.122845e-02  7.597172e+03
4663.5328 -3.419176e-02  7.563880e+03
4663.8705 -4.997330e-02  7.523129e+03
4664.2081  2.724291e-02  7.728238e+03
4664.5458  3.821888e-02  7.758213e+03
4664.8835  6.651978e-02  7.833984e+03
4665.2211  6.778108e-02  7.838259e+03
4665.5588  1.952282e-02  7.711605e+03
4665.8965  2.487765e-02  7.726686e+03
4666.2342  2.040908e-02  7.715786e+03
4666.5718 -1.318729e-02  7.627869e+03
4666.9095 -3.103144e-03  7.655425e+03
4667.2472 -7.549182e-03  7.644557e+03
4667.5848 -1.320720e-02  7.630475e+03
4667.9225  6.191586e-04  7.667896e+03
4668.2602 -5.612845e-02  7.518723e+03
4668.5979 -2.030553e-02  7.614278e+03
4668.9355 -2.135857e-02  7.612331e+03
4669.2732 -7.036869e-02  7.483583e+03
4669.6109 -3.049725e-02  7.589811e+03
4669.9485 -4.622944e-02  7.549022e+03
4670.2862 -1.087384e-02  7.643288e+03
4670.6239 -1.557255e-02  7.631647e+03
4670.9616  1.497359e-01  8.069460e+03
4671.2992  7.961014e-01  9.779078e+03
4671.6369  8.591451e-01  9.946500e+03
4671.9746  8.999418e-02  7.913756e+03
4672.3122  4.841552e-03  7.689353e+03
4672.6499 -5.134162e-04  7.675906e+03
4672.9876  2.071147e-02  7.732718e+03
4673.3252  2.197123e-02  7.736734e+03
4673.6629 -1.207955e-02  7.647384e+03
4674.0006 -1.807848e-02  7.632184e+03
4674.3383  6.092497e-03  7.696733e+03
4674.6759 -5.287881e-03  7.667279e+03
4675.0136 -1.276585e-02  7.648129e+03
4675.3513 -3.691219e-03  7.672727e+03
4675.6889 -5.882065e-02  7.527568e+03
4676.0266 -9.298521e-03  7.659073e+03
4676.3643  2.294690e-03  7.690287e+03
4676.7020  1.225382e-02  7.717167e+03
4677.0396  4.151218e-02  7.795056e+03
4677.3773  3.566441e-02  7.780116e+03
4677.7150  4.568832e-02  7.807124e+03
4678.0526 -2.298393e-03  7.680748e+03
4678.3903  1.292739e-02  7.721478e+03
4678.7280  1.880959e-02  7.737490e+03
4679.0656  4.224973e-03  7.699376e+03
4679.4033  1.453951e-01  8.073032e+03
4679.7410  6.043524e-01  9.286836e+03
4680.0787  8.363916e-01  9.900699e+03
4680.4163  2.375225e-01  8.317793e+03
4680.7540 -1.382631e-02  7.653644e+03
4681.0917 -1.617926e-02  7.647773e+03
4681.4293 -1.880433e-02  7.641167e+03
4681.7670  1.086830e-02  7.719933e+03
4682.1047  1.260114e-02  7.724814e+03
4682.4424 -2.664149e-02  7.621349e+03
4682.7800 -2.648219e-02  7.622037e+03
4683.1177 -8.679900e-03  7.669352e+03
4683.4554 -1.774989e-03  7.687840e+03
4683.7930 -1.040053e-02  7.665251e+03
4684.1307 -3.190156e-02  7.608604e+03
4684.4684 -1.946705e-02  7.641659e+03
4684.8061 -9.361809e-03  7.668538e+03
4685.1437 -1.055579e-02  7.665526e+03
4685.4814  1.808469e-02  7.741373e+03
4685.8191  1.564580e-02  7.735034e+03
4686.1567  3.240982e-04  7.694618e+03
4686.4944 -3.388038e-02  7.604261e+03
4686.8321 -5.014903e-02  7.561304e+03
4687.1697 -1.493668e-02  7.654435e+03
4687.5074  2.465758e-02  7.759131e+03
4687.8451  1.745527e-02  7.740089e+03
4688.1828 -3.258255e-02  7.607779e+03
4688.5204 -6.790018e-02  7.514368e+03
4688.8581 -4.245989e-02  7.581570e+03
4689.1958 -2.149096e-02  7.636931e+03
4689.5334 -3.202359e-02  7.608990e+03
4689.8711 -7.372621e-02  7.498622e+03
4690.2088 -4.257309e-02  7.580851e+03
4690.5465 -2.142175e-02  7.636618e+03
4690.8841 -2.851042e-02  7.617705e+03
4691.2218 -2.116291e-02  7.636939e+03
4691.5595 -4.181970e-02  7.582116e+03
4691.8971 -1.518716e-02  7.652296e+03
4692.2348  7.382254e-02  7.887370e+03
4692.5725  5.313474e-02  7.832406e+03
4692.9102  1.717741e-02  7.737053e+03
4693.2478 -4.019672e-03  7.680704e+03
4693.5855  4.165195e-02  7.801122e+03
4693.9232  1.285913e-02  7.724651e+03
4694.2608 -4.836043e-02  7.562431e+03
4694.5985 -2.887985e-02  7.613545e+03
4694.9362 -3.564075e-03  7.680067e+03
4695.2738  1.839733e-03  7.693926e+03
4695.6115  1.683220e-02  7.733116e+03
4695.9492  4.453939e-02  7.805900e+03
4696.2869  3.957648e-03  7.698123e+03
4696.6245 -3.201439e-03  7.678688e+03
4696.9622  1.306988e-02  7.721179e+03
4697.2999 -4.240621e-02  7.573964e+03
4697.6375 -6.534745e-02  7.512745e+03
4697.9752 -7.954755e-02  7.474616e+03
4698.3129 -6.471544e-02  7.513222e+03
4698.6506 -3.483192e-02  7.591601e+03
4698.9882 -1.370290e-02  7.646814e+03
4699.3259 -2.339212e-02  7.620531e+03
4699.6636 -7.124118e-02  7.493341e+03
4700.0012 -5.680769e-02  7.530794e+03
4700.3389 -3.459333e-02  7.588798e+03
4700.6766 -3.529051e-02  7.586208e+03
4701.0142 -1.367788e-02  7.642582e+03
4701.3519  5.321646e-03  7.692027e+03
4701.6896  1.340034e-02  7.712581e+03
4702.0273  4.271206e-02  7.789250e+03
4702.3649  4.229895e-02  7.787313e+03
4702.7026 -1.100590e-02  7.645522e+03
4703.0403  1.132172e-02  7.703669e+03
4703.3779 -1.119256e-02  7.643243e+03
4703.7156 -1.864313e-02  7.622624e+03
4704.0533  9.148045e-03  7.695157e+03
4704.3910  1.688125e-02  7.714642e+03
4704.7286  5.856188e-04  7.670580e+03
4705.0663 -2.852232e-02  7.592626e+03
4705.4040 -3.183901e-02  7.582841e+03
4705.7416 -5.334605e-02  7.524945e+03
4706.0793 -3.586513e-02  7.570106e+03
4706.4170 -1.077741e-02  7.635360e+03
4706.7547 -1.365022e-02  7.626674e+03
4707.0923 -3.614581e-02  7.566090e+03
4707.4300 -6.662749e-02  7.484375e+03
4707.7677 -1.184362e-01  7.346257e+03
4708.1053 -5.020696e-02  7.525478e+03
4708.4430 -1.445362e-02  7.618820e+03
4708.7807 -6.782610e-03  7.637901e+03
4709.1183  1.083391e-02  7.683259e+03
4709.4560 -3.791580e-03  7.643357e+03
4709.7937  6.247338e-03  7.668646e+03
4710.1314  1.879380e-02  7.700548e+03
4710.4690  4.473001e-02  7.767832e+03
4710.8067  4.410243e-02  7.764870e+03
4711.1444 -8.104995e-03  7.625525e+03
4711.4820 -1.354856e-02  7.609797e+03
4711.8197  1.975634e-02  7.696497e+03
4712.1574  2.485880e-02  7.708618e+03
4712.4951 -9.774144e-03  7.615671e+03
4712.8327  2.623372e-03  7.647048e+03
4713.1704  1.900518e-02  7.688942e+03
4713.5081 -4.145385e-02  7.527670e+03
4713.8457 -6.464954e-02  7.464899e+03
4714.1834 -3.397270e-02  7.544541e+03
4714.5211 -1.566334e-02  7.591471e+03
4714.8587  2.694763e-03  7.638516e+03
4715.1964 -1.308866e-03  7.626426e+03
4715.5341 -1.236781e-02  7.595669e+03
4715.8718  9.547425e-03  7.652075e+03
4716.2094  1.879244e-02  7.674970e+03
4716.5471  1.592213e-02  7.665821e+03
4716.8848 -2.481887e-02  7.556537e+03
4717.2224 -3.875190e-02  7.518114e+03
4717.5601  1.451452e-02  7.657340e+03
4717.8978 -8.551036e-03  7.594747e+03
4718.2355 -3.287946e-02  7.528803e+03
4718.5731 -4.442964e-02  7.496630e+03
4718.9108 -4.645480e-02  7.489628e+03
4719.2485  7.546611e-03  7.630737e+03
4719.5861  3.445522e-02  7.700207e+03
4719.9238  1.329910e-02  7.642592e+03
4720.2615  5.337084e-02  7.746840e+03
4720.5992  7.142752e-02  7.792875e+03
4720.9368  5.367644e-02  7.744231e+03
4721.2745  1.604435e-02  7.643016e+03
4721.6122 -4.033632e-02  7.492223e+03
4721.9498 -6.302222e-02  7.430503e+03
4722.2875 -5.253317e-02  7.456482e+03
4722.6252 -5.303478e-03  7.579587e+03
4722.9628  3.040575e-02  7.672226e+03
4723.3005  2.329176e-02  7.651641e+03
4723.6382 -3.452615e-03  7.579148e+03
4723.9759  1.945631e-02  7.637922e+03
4724.3135  2.525136e-02  7.651442e+03
4724.6512  1.251033e-02  7.615950e+03
4724.9889  2.274277e-02  7.641188e+03
4725.3265  2.210774e-02  7.637689e+03
4725.6642  1.931230e-02  7.628472e+03
4726.0019  2.412299e-03  7.581959e+03
4726.3396 -2.169573e-02  7.516384e+03
4726.6772 -4.865083e-02  7.443277e+03
4727.0149 -5.726925e-02  7.418644e+03
4727.3526 -8.249841e-02  7.350091e+03
4727.6902 -4.093567e-02  7.458118e+03
4728.0279 -1.742701e-03  7.559875e+03
4728.3656 -4.315590e-02  7.448523e+03
4728.7032 -4.533895e-02  7.440885e+03
4729.0409 -3.144504e-03  7.550568e+03
4729.3786 -4.747202e-02  7.431503e+03
4729.7163 -4.021424e-02  7.448816e+03
4730.0539 -4.502743e-02  7.434215e+03
4730.3916 -3.542395e-02  7.457727e+03
4730.7293  2.748740e-02  7.622172e+03
4731.0669  1.837796e-02  7.596209e+03
4731.4046 -4.462662e-02  7.427757e+03
4731.7423 -1.415619e-02  7.506435e+03
4732.0800  7.175533e-03  7.560951e+03
4732.4176 -2.862829e-02  7.464414e+03
4732.7553 -4.132912e-02  7.428957e+03
4733.0930 -2.827902e-02  7.461581e+03
4733.4306 -1.247343e-02  7.501492e+03
4733.7683 -2.297039e-02  7.471867e+03
4734.1060  3.328157e-03  7.539523e+03
4734.4437  2.388110e-02  7.591993e+03
4734.7813  3.954212e-02  7.631532e+03
4735.1190  4.065147e-02  7.632603e+03
4735.4567  1.982513e-02  7.575684e+03
4735.7943  1.299632e-02  7.555775e+03
4736.1320 -1.549235e-02  7.478607e+03
4736.4697  5.019675e-03  7.530992e+03
4736.8073  2.903958e-02  7.592656e+03
4737.1450  4.756601e-02  7.639802e+03
4737.4827  9.475909e-03  7.537271e+03
4737.8204  1.169775e-03  7.513490e+03
4738.1580  6.541087e-03  7.525875e+03
4738.4957 -1.211671e-03  7.503570e+03
4738.8334 -4.558653e-03  7.492920e+03
4739.1710 -3.645375e-02  7.406802e+03
4739.5087 -2.553884e-02  7.433874e+03
4739.8464 -3.578547e-02  7.405006e+03
4740.1841 -4.645198e-03  7.485566e+03
4740.5217  3.599189e-02  7.591243e+03
4740.8594  1.420357e-02  7.531889e+03
4741.1971  3.893716e-03  7.502892e+03
4741.5347  1.675747e-02  7.535170e+03
4741.8724  2.105953e-02  7.544824e+03
4742.2101  3.489323e-02  7.579688e+03
4742.5477  4.948331e-02  7.616563e+03
4742.8854  3.182824e-02  7.568200e+03
4743.2231  3.217871e-02  7.567452e+03
4743.5608 -7.355139e-03  7.461269e+03
4743.8984 -8.983587e-03  7.455313e+03
4744.2361  2.211161e-02  7.535884e+03
4744.5738  2.479733e-03  7.482356e+03
4744.9114  1.858004e-02  7.523311e+03
4745.2491  1.292932e-02  7.506773e+03
4745.5868  2.622470e-02  7.540339e+03
4745.9245  5.273100e-03  7.483377e+03
4746.2621 -6.390408e-03  7.450985e+03
4746.5998  2.903351e-02  7.543098e+03
4746.9375  4.901907e-02  7.594410e+03
4747.2751  4.224011e-02  7.574978e+03
4747.6128  5.641691e-02  7.610963e+03
4747.9505  7.281800e-02  7.652846e+03
4748.2882  4.434176e-02  7.576098e+03
4748.6258  5.610865e-02  7.605761e+03
4748.9635  5.085802e-02  7.590450e+03
4749.3012  1.589517e-02  7.496603e+03
4749.6388  9.417085e-02  7.702152e+03
4749.9765  7.878911e-02  7.660108e+03
4750.3142  6.126067e-02  7.612407e+03
4750.6518  1.547720e-02  7.490022e+03
4750.9895  8.976844e-04  7.450153e+03
4751.3272  1.661707e-02  7.490407e+03
4751.6649  2.092705e-02  7.500515e+03
4752.0025  5.528810e-02  7.590090e+03
4752.3402  5.741936e-02  7.594476e+03
4752.6779  5.705946e-02  7.592295e+03
4753.0155  1.980475e-02  7.492591e+03
4753.3532 -1.723927e-02  7.393463e+03
4753.6909 -3.682759e-03  7.428133e+03
4754.0286  1.713482e-02  7.482020e+03
4754.3662  7.723578e-02  7.639784e+03
4754.7039  8.703441e-03  7.457488e+03
4755.0416 -1.631644e-02  7.390251e+03
4755.3792 -1.717326e-02  7.386917e+03
4755.7169 -6.008747e-03  7.415385e+03
4756.0546 -1.018596e-02  7.403313e+03
4756.3923 -5.894368e-02  7.273401e+03
4756.7299 -4.626471e-02  7.305937e+03
4757.0676  2.687722e-03  7.434393e+03
4757.4053 -1.359346e-03  7.422750e+03
4757.7429  2.535954e-02  7.492468e+03
4758.0806  3.890824e-02  7.527388e+03
4758.4183  2.111254e-02  7.479461e+03
4758.7559  3.556023e-02  7.516801e+03
4759.0936  2.604146e-02  7.490800e+03
4759.4313  9.703870e-03  7.446793e+03
4759.7690  4.080753e-02  7.528233e+03
4760.1066  5.471503e-02  7.564231e+03
4760.4443  3.223954e-02  7.504062e+03
4760.7820 -4.546903e-03  7.406080e+03
4761.1196 -1.991835e-02  7.364736e+03
4761.4573 -1.598654e-02  7.374448e+03
4761.7950  7.236476e-04  7.417965e+03
4762.1327  3.842836e-03  7.425572e+03
4762.4703 -2.745952e-02  7.342197e+03
4762.8080  9.854432e-03  7.440251e+03
4763.1457  6.287491e-02  7.579852e+03
4763.4833  2.549567e-02  7.480476e+03
4763.8210 -2.282765e-02  7.352187e+03
4764.1587 -3.537323e-02  7.318508e+03
4764.4963 -3.603208e-02  7.316276e+03
4764.8340 -3.917151e-02  7.307508e+03
4765.1717 -3.414005e-02  7.320362e+03
4765.5094 -5.892383e-02  7.254412e+03
4765.8470 -1.874407e-02  7.360233e+03
4766.1847  1.998738e-02  7.462245e+03
4766.5224  1.437668e-02  7.447046e+03
4766.8600  4.391826e-02  7.524802e+03
4767.1977  1.341388e-02  7.443829e+03
4767.5354  1.386285e-02  7.444710e+03
4767.8731  4.129074e-02  7.516937e+03
4768.2107  3.026349e-02  7.487516e+03
4768.5484  1.508706e-02  7.447144e+03
4768.8861  3.395161e-02  7.496788e+03
4769.2237  2.602631e-02  7.475623e+03
4769.5614  4.959257e-02  7.537734e+03
4769.8991  7.260820e-02  7.598407e+03
4770.2368  2.709285e-02  7.477915e+03
4770.5744  7.602629e-03  7.426246e+03
4770.9121  4.575389e-02  7.526985e+03
4771.2498  3.713023e-02  7.504078e+03
4771.5874  4.175603e-02  7.516216e+03
4771.9251  6.226288e-02  7.570355e+03
4772.2628  9.922531e-02  7.668016e+03
4772.6004  4.224283e-02  7.517319e+03
4772.9381 -2.001708e-02  7.352685e+03
4773.2758 -1.429609e-02  7.367792e+03
4773.6135  3.138636e-02  7.488563e+03
4773.9511 -2.306733e-02  7.344608e+03
4774.2888  2.915099e-03  7.413322e+03
4774.6265  2.966757e-01  8.189999e+03
4774.9641  7.595777e-01  9.413863e+03
4775.3018  3.848419e-01  8.423194e+03
4775.6395 -2.740973e-02  7.333352e+03
4775.9772 -4.077143e-03  7.395115e+03
4776.3148 -1.016731e-02  7.379101e+03
4776.6525  4.756448e-02  7.531827e+03
4776.9902  2.724895e-02  7.478221e+03
4777.3278 -4.268322e-03  7.395007e+03
4777.6655 -3.224956e-03  7.397884e+03
4778.0032  1.288422e-02  7.440598e+03
4778.3408 -1.367464e-02  7.370513e+03
4778.6785 -6.826150e-02  7.226332e+03
4779.0162 -3.786045e-02  7.306847e+03
4779.3539  1.051092e-02  7.434875e+03
4779.6915 -3.053402e-02  7.326508e+03
4780.0292 -1.826374e-02  7.359098e+03
4780.3669  1.619578e-02  7.450353e+03
4780.7045 -3.227407e-02  7.322361e+03
4781.0422 -3.662134e-02  7.311020e+03
4781.3799 -3.413892e-02  7.317735e+03
4781.7176 -1.531116e-02  7.367662e+03
4782.0552 -5.911978e-02  7.251989e+03
4782.3929 -5.697618e-02  7.257802e+03
4782.7306  3.541591e-03  7.417940e+03
4783.0682 -1.207595e-02  7.376787e+03
4783.4059 -2.350727e-02  7.346696e+03
4783.7436  2.502565e-03  7.415586e+03
4784.0813 -4.361713e-02  7.293772e+03
4784.4189 -3.145428e-02  7.326038e+03
4784.7566 -2.023010e-02  7.355813e+03
4785.0943 -1.913199e-02  7.358807e+03
4785.4319 -1.428371e-02  7.371704e+03
4785.7696  1.598545e-02  7.451797e+03
4786.1073  2.696365e-02  7.480876e+03
4786.4449  2.831201e-02  7.484482e+03
4786.7826  8.830586e-03  7.433004e+03
4787.1203 -1.812813e-02  7.361741e+03
4787.4580 -4.795815e-02  7.282871e+03
4787.7956 -2.829394e-02  7.334835e+03
4788.1333 -5.544081e-02  7.263021e+03
4788.4710 -1.962715e-02  7.357643e+03
4788.8086  1.972642e-02  7.461603e+03
4789.1463  1.288215e-02  7.443402e+03
4789.4840  3.125725e-02  7.491854e+03
4789.8217  1.631798e-02  7.452205e+03
4790.1593 -1.194059e-02  7.377317e+03
4790.4970 -3.900849e-02  7.305551e+03
4790.8347  2.197579e-02  7.466550e+03
4791.1723  4.539325e-02  7.528201e+03
4791.5100  1.973872e-02  7.460085e+03
4791.8477  4.236222e-02  7.519577e+03
4792.1853 -3.742609e-03  7.397332e+03
4792.5230 -3.602436e-02  7.311600e+03
4792.8607 -5.576304e-02  7.258994e+03
4793.1984 -3.293251e-02  7.318897e+03
4793.5360 -6.149634e-02  7.242888e+03
4793.8737 -5.630916e-02  7.256071e+03
4794.2114 -1.353653e-02  7.368583e+03
4794.5490 -9.869505e-03  7.377667e+03
4794.8867 -3.080028e-02  7.321679e+03
4795.2244  2.094067e-02  7.457776e+03
4795.5621  1.248368e-02  7.434679e+03
4795.8997  1.571511e-02  7.442438e+03
4796.2374  3.719339e-02  7.498391e+03
4796.5751  5.747565e-02  7.551134e+03
4796.9127  1.334726e-02  7.433539e+03
4797.2504 -1.138333e-02  7.367178e+03
4797.5881 -1.128466e-02  7.366408e+03
4797.9258 -1.783322e-02  7.348012e+03
4798.2634 -4.040096e-02  7.287209e+03
4798.6011 -5.506124e-02  7.247257e+03
4798.9388 -6.386381e-02  7.222735e+03
4799.2764 -2.088555e-02  7.335052e+03
4799.6141 -1.966607e-03  7.383702e+03
4799.9518 -2.073103e-02  7.332664e+03
4800.2894 -3.817507e-02  7.285055e+03
4800.6271 -7.099247e-02  7.196738e+03
4800.9648 -9.400572e-02  7.134276e+03
4801.3025 -8.728689e-02  7.150354e+03
4801.6401 -1.907334e-02  7.328945e+03
4801.9778  2.116323e-02  7.433501e+03
4802.3155 -4.127272e-04  7.374567e+03
4802.6531 -8.987466e-03  7.349935e+03
4802.9908 -1.114449e-02  7.342197e+03
4803.3285 -1.032074e-02  7.342266e+03
4803.6662 -2.188448e-03  7.361582e+03
4804.0038  4.431924e-03  7.376824e+03
4804.3415 -1.550707e-02  7.321771e+03
4804.6792 -2.888072e-02  7.283996e+03
4805.0168 -1.390812e-02  7.321083e+03
4805.3545 -5.879237e-02  7.199838e+03
4805.6922 -9.630142e-02  7.098009e+03
4806.0298 -4.607702e-02  7.228045e+03
4806.3675 -2.088169e-02  7.291824e+03
4806.7052 -2.664202e-02  7.273675e+03
4807.0429 -4.426748e-02  7.224070e+03
4807.3805 -4.997607e-02  7.205881e+03
4807.7182 -8.048893e-02  7.122024e+03
4808.0559 -5.899662e-02  7.175566e+03
4808.3935 -2.276140e-02  7.267993e+03
4808.7312 -5.802520e-02  7.171297e+03
4809.0689 -3.621735e-02  7.225391e+03
4809.4066 -6.745695e-03  7.299650e+03
4809.7442  7.859779e-03  7.334509e+03
4810.0819 -1.634048e-02  7.266674e+03
4810.4196 -3.219098e-02  7.220814e+03
4810.7572 -1.851905e-02  7.252904e+03
4811.0949 -2.592860e-02  7.229157e+03
4811.4326 -2.074610e-02  7.238598e+03
4811.7703  1.335521e-02  7.324389e+03
4812.1079 -2.131811e-02  7.228249e+03
4812.4456 -4.285462e-02  7.166733e+03
4812.7833 -1.596074e-02  7.233150e+03
4813.1209 -3.508936e-02  7.177785e+03
4813.4586 -2.480651e-02  7.200067e+03
4813.7963 -1.123798e-02  7.230926e+03
4814.1339 -2.091606e-03  7.249982e+03
4814.4716  1.032822e-02  7.277581e+03
4814.8093 -3.564851e-02  7.150677e+03
4815.1470 -9.579655e-04  7.236927e+03
4815.4846  1.835839e-02  7.282416e+03
4815.8223  1.923854e-02  7.279047e+03
4816.1600 -1.188044e-02  7.190962e+03
4816.4976 -2.988344e-02  7.137437e+03
4816.8353  1.796657e-02  7.257895e+03
4817.1730  5.056816e-02  7.337920e+03
4817.5107 -5.495781e-03  7.183412e+03
4817.8483 -1.208214e-02  7.159593e+03
4818.1860  6.993242e-03  7.203497e+03
4818.5237  2.627080e-02  7.247814e+03
4818.8613 -3.180696e-02  7.087498e+03
4819.1990 -3.547026e-02  7.070920e+03
4819.5367 -2.930398e-03  7.149933e+03
4819.8744  7.056844e-03  7.169197e+03
4820.2120  8.573820e-03  7.165944e+03
4820.5497  2.116340e-02  7.191841e+03
4820.8874  2.252096e-02  7.187917e+03
4821.2250  6.706978e-02  7.298058e+03
4821.5627  3.687030e-02  7.210454e+03
4821.9004 -9.983921e-03  7.078693e+03
4822.2380  1.137436e-02  7.127146e+03
4822.5757 -8.029267e-03  7.067707e+03
4822.9134  1.687500e-02  7.125283e+03
4823.2511  5.649221e-04  7.073771e+03
4823.5887 -6.902505e-02  6.881271e+03
4823.9264 -6.465208e-02  6.884189e+03
4824.2641 -7.393780e-02  6.850870e+03
4824.6017 -1.031905e-01  6.764636e+03
4824.9394 -1.117340e-01  6.733027e+03
4825.2771 -6.078800e-02  6.858571e+03
4825.6148  5.499455e-03  7.024550e+03
4825.9524  4.326421e-02  7.114995e+03
4826.2901  9.001985e-02  7.229086e+03
4826.6278  1.151802e-01  7.285959e+03
4826.9654  8.360574e-02  7.192713e+03
4827.3031  6.874073e-02  7.143520e+03
4827.6408  6.619769e-02  7.126781e+03
4827.9784  3.050567e-02  7.022281e+03
4828.3161  1.498867e-02  6.970999e+03
4828.6538  2.826716e-02  6.995725e+03
4828.9915  4.381373e-02  7.026327e+03
4829.3291  6.772298e-02  7.078920e+03
4829.6668  3.675178e-02  6.986302e+03
4830.0045  1.494966e-02  6.917808e+03
4830.3421  2.248468e-02  6.926759e+03
4830.6798  4.115621e-02  6.965038e+03
4831.0175  9.323756e-03  6.869680e+03
4831.3552  2.461162e-02  6.898787e+03
4831.6928  7.458179e-02  7.019475e+03
4832.0305  6.028828e-02  6.970152e+03
4832.3682  7.286830e-02  6.991770e+03
4832.7058  4.999990e-02  6.919561e+03
4833.0435  2.574827e-02  6.843590e+03
4833.3812  2.393533e-02  6.826838e+03
4833.7189  8.290548e-02  6.970682e+03
4834.0565  9.049585e-02  6.978587e+03
4834.3942  7.373835e-02  6.922022e+03
4834.7319  6.557793e-02  6.888090e+03
4835.0695  6.484254e-02  6.873692e+03
4835.4072  9.082887e-02  6.929849e+03
4835.7449  1.133431e-01  6.976734e+03
4836.0825  8.476343e-02  6.888449e+03
4836.4202  6.877430e-02  6.833364e+03
4836.7579  4.547455e-02  6.758867e+03
4837.0956  7.288459e-02  6.818354e+03
4837.4332  7.603288e-02  6.813619e+03
4837.7709  5.794667e-02  6.752667e+03
4838.1086  3.754323e-02  6.685514e+03
4838.4462  6.160893e-02  6.735857e+03
4838.7839  9.773122e-02  6.818006e+03
4839.1216  6.551338e-02  6.719411e+03
4839.4593  4.957104e-02  6.663782e+03
4839.7969  1.093391e-01  6.808256e+03
4840.1346  7.524601e-02  6.704522e+03
4840.4723  4.320464e-02  6.606159e+03
4840.8099  9.238695e-02  6.722484e+03
4841.1476  8.428318e-02  6.687308e+03
4841.4853  9.338595e-02  6.697579e+03
4841.8229  3.612591e-02  6.532358e+03
4842.1606  4.672793e-03  6.435329e+03
4842.4983  4.586377e-02  6.530322e+03
4842.8360  5.740668e-02  6.546902e+03
4843.1736  6.191053e-02  6.544845e+03
4843.5113  8.055182e-02  6.580143e+03
4843.8490  3.210899e-02  6.438064e+03
4844.1866  3.671152e-02  6.436213e+03
4844.5243  5.214215e-02  6.462978e+03
4844.8620 -2.265217e-02  6.251200e+03
4845.1997 -1.673363e-02  6.252809e+03
4845.5373 -9.853806e-03  6.256960e+03
4845.8750 -4.030306e-02  6.162428e+03
4846.2127 -5.488144e-02  6.109866e+03
4846.5503 -5.067442e-02  6.106984e+03
4846.8880 -2.079408e-02  6.171998e+03
4847.2257 -2.672177e-02  6.142366e+03
4847.5634 -4.597687e-02  6.077529e+03
4847.9010 -7.221951e-02  5.994253e+03
4848.2387 -1.022335e-01  5.901045e+03
4848.5764 -1.080239e-01  5.871923e+03
4848.9140 -1.472465e-01  5.754463e+03
4849.2517 -1.492478e-01  5.735462e+03
4849.5894 -1.327920e-01  5.765317e+03
4849.9270 -1.233995e-01  5.776563e+03
4850.2647 -1.187002e-01  5.775472e+03
4850.6024 -1.446823e-01  5.693340e+03
4850.9401 -1.462525e-01  5.675829e+03
4851.2777 -1.361849e-01  5.689172e+03
4851.6154 -1.532841e-01  5.630783e+03
4851.9531 -1.918239e-01  5.515808e+03
4852.2907 -2.810160e-01  5.267021e+03
4852.6284 -3.127411e-01  5.170273e+03
4852.9661 -2.733824e-01  5.261572e+03
4853.3038 -3.121760e-01  5.146373e+03
4853.6414 -3.417993e-01  5.055544e+03
4853.9791 -3.489513e-01  5.024257e+03
4854.3168 -3.980681e-01  4.882163e+03
4854.6544 -4.393821e-01  4.760841e+03
4854.9921 -4.714619e-01  4.664084e+03
4855.3298 -5.044966e-01  4.564959e+03
4855.6674 -5.376610e-01  4.465654e+03
4856.0051 -6.144395e-01  4.251211e+03
4856.3428 -6.532882e-01  4.137222e+03
4856.6805 -6.516120e-01  4.130555e+03
4857.0181 -6.954545e-01  4.003733e+03
4857.3558 -7.144375e-01  3.942829e+03
4857.6935 -7.128462e-01  3.936521e+03
4858.0311 -7.740102e-01  3.764507e+03
4858.3688 -8.424132e-01  3.573568e+03
4858.7065 -7.870761e-01  3.709993e+03
4859.0442 -8.718696e-01  3.476167e+03
4859.3818 -8.952253e-01  3.405003e+03
4859.7195 -9.520859e-01  3.245499e+03
4860.0572 -1.045533e+00  2.989512e+03
4860.3948 -1.083899e+00  2.879401e+03
4860.7325 -1.122732e+00  2.768315e+03
4861.0702 -1.168117e+00  2.640173e+03
4861.4079 -1.190912e+00  2.572024e+03
4861.7455 -1.192083e+00  2.561322e+03
4862.0832 -1.160766e+00  2.636797e+03
4862.4209 -1.133509e+00  2.701827e+03
4862.7585 -1.082289e+00  2.830509e+03
4863.0962 -1.069279e+00  2.858474e+03
4863.4339 -9.973205e-01  3.042598e+03
4863.7715 -9.097449e-01  3.268324e+03
4864.1092 -8.447154e-01  3.434766e+03
4864.4469 -8.348656e-01  3.455651e+03
4864.7846 -8.052436e-01  3.529143e+03
4865.1222 -7.417948e-01  3.692406e+03
4865.4599 -6.957560e-01  3.809987e+03
4865.7976 -6.626928e-01  3.893613e+03
4866.1352 -6.194240e-01  4.004579e+03
4866.4729 -5.823879e-01  4.099429e+03
4866.8106 -5.234111e-01  4.252653e+03
4867.1483 -4.411510e-01  4.467808e+03
4867.4859 -4.369204e-01  4.477046e+03
4867.8236 -4.229724e-01  4.512359e+03
4868.1613 -4.045241e-01  4.559959e+03
4868.4989 -3.690549e-01  4.652953e+03
4868.8366 -3.274384e-01  4.762596e+03
4869.1743 -3.170569e-01  4.790063e+03
4869.5119 -2.529590e-01  4.959953e+03
4869.8496 -2.129449e-01  5.066582e+03
4870.1873 -2.450419e-01  4.982978e+03
4870.5250 -1.732457e-01  5.174466e+03
4870.8626 -1.244770e-01  5.305497e+03
4871.2003 -1.521509e-01  5.234855e+03
4871.5380 -1.098495e-01  5.349644e+03
4871.8756 -7.439364e-02  5.446766e+03
4872.2133 -8.363372e-02  5.426156e+03
4872.5510 -4.829273e-02  5.523847e+03
4872.8887 -7.110260e-03  5.637421e+03
4873.2263  1.061105e-02  5.689410e+03
4873.5640  2.018448e-02  5.720301e+03
4873.9017 -8.840594e-03  5.649590e+03
4874.2393  2.570634e-02  5.747396e+03
4874.5770  4.563306e-02  5.806996e+03
4874.9147  9.448046e-03  5.718694e+03
4875.2524  4.406655e-03  5.713177e+03
4875.5900  4.760865e-02  5.835651e+03
4875.9277  5.116415e-02  5.853754e+03
4876.2654  8.488722e-02  5.952059e+03
4876.6030  6.890952e-02  5.919408e+03
4876.9407  6.168131e-02  5.910331e+03
4877.2784  7.700383e-02  5.961312e+03
4877.6160  6.372488e-02  5.937112e+03
4877.9537  7.168410e-02  5.969496e+03
4878.2914  1.456721e-01  6.176875e+03
4878.6291  1.393608e-01  6.172385e+03
4878.9667  1.158303e-01  6.122791e+03
4879.3044  1.045624e-01  6.106032e+03
4879.6421  9.692514e-02  6.099282e+03
4879.9797  1.322196e-01  6.206438e+03
4880.3174  9.781086e-02  6.129710e+03
4880.6551  7.577199e-02  6.086074e+03
4880.9928  1.105547e-01  6.193044e+03
4881.3304  1.472174e-01  6.305357e+03
4881.6681  9.414180e-02  6.180784e+03
4882.0058  8.905060e-02  6.183424e+03
4882.3434  1.242402e-01  6.292902e+03
4882.6811  1.485229e-01  6.373875e+03
4883.0188  1.123504e-01  6.295336e+03
4883.3564  8.629814e-02  6.243859e+03
4883.6941  4.748395e-02  6.158936e+03
4884.0318  5.254269e-02  6.190281e+03
4884.3695  7.208639e-02  6.260186e+03
4884.7071  1.342765e-01  6.443085e+03
4885.0448  1.000410e-01  6.371286e+03
4885.3825  1.225509e-01  6.449723e+03
4885.7201  1.420409e-01  6.520369e+03
4886.0578  1.029056e-01  6.436197e+03
4886.3955  1.046290e-01  6.460200e+03
4886.7332  9.867127e-02  6.464029e+03
4887.0708  7.491229e-02  6.420904e+03
4887.4085  9.039079e-02  6.481602e+03
4887.7462  8.956411e-02  6.499254e+03
4888.0838  5.903537e-02  6.438416e+03
4888.4215  8.735699e-02  6.533175e+03
4888.7592  8.947218e-02  6.558631e+03
4889.0969  5.320154e-02  6.482555e+03
4889.4345  4.996407e-02  6.493733e+03
4889.7722  4.394790e-02  6.497456e+03
4890.1099  4.640212e-02  6.523430e+03
4890.4475  5.263317e-02  6.559213e+03
4890.7852  3.750016e-02  6.538301e+03
4891.1229  2.172657e-02  6.515447e+03
4891.4605  1.007300e-02  6.503199e+03
4891.7982 -2.077110e-02  6.439888e+03
4892.1359 -2.245442e-02  6.453304e+03
4892.4736  7.904789e-03  6.551024e+03
4892.8112  1.304013e-02  6.581604e+03
4893.1489 -5.173344e-03  6.549953e+03
4893.4866 -6.731505e-02  6.401618e+03
4893.8242 -3.590146e-02  6.500028e+03
4894.1619  2.996082e-02  6.688867e+03
4894.4996 -1.702495e-02  6.578660e+03
4894.8373 -4.128263e-02  6.527788e+03
4895.1749 -1.027385e-01  6.377762e+03
4895.5126 -9.027304e-02  6.422303e+03
4895.8503 -4.309565e-02  6.557689e+03
4896.1879 -7.135631e-03  6.662432e+03
4896.5256 -3.550998e-03  6.680529e+03
4896.8633 -5.440566e-02  6.553583e+03
4897.2010 -6.398134e-02  6.534586e+03
4897.5386 -8.437104e-02  6.485746e+03
4897.8763 -2.626972e-02  6.643095e+03
4898.2140 -1.912273e-02  6.664331e+03
4898.5516 -9.734506e-02  6.458393e+03
4898.8893 -7.947452e-02  6.504950e+03
4899.2270 -4.300643e-02  6.599041e+03
4899.5646 -6.052606e-02  6.548681e+03
4899.9023 -8.255503e-02  6.484596e+03
4900.2400 -1.014545e-01  6.426892e+03
4900.5777 -1.239345e-01  6.357740e+03
4900.9153 -1.013961e-01  6.405531e+03
4901.2530 -3.907644e-02  6.556324e+03
4901.5907 -4.259904e-02  6.530772e+03
4901.9283 -1.132405e-01  6.325400e+03
4902.2660 -6.823486e-02  6.423300e+03
4902.6037  2.799619e-03  6.587431e+03
4902.9414  1.627497e-02  6.596693e+03
4903.2790  2.442717e-02  6.589076e+03
4903.6167  2.785831e-02  6.566055e+03
4903.9544  9.431099e-03  6.482202e+03
4904.2920  4.655381e-02  6.542048e+03
4904.6297  6.744941e-02  6.555702e+03
4904.9674  9.946935e-02  6.595348e+03
4905.3050  3.601706e-02  6.379032e+03
4905.6427  5.959099e-02  6.389109e+03
4905.9804  1.164311e-01  6.483308e+03
4906.3181  1.237403e-01  6.442586e+03
4906.6557  1.546904e-01  6.460250e+03
4906.9934  1.762629e-01  6.448855e+03
4907.3311  2.726929e-01  6.630946e+03
4907.6687  2.612897e-01  6.523369e+03
4908.0064  2.636438e-01  6.447421e+03
4908.3441  3.298879e-01  6.535479e+03
4908.6818  3.910436e-01  6.605005e+03
4909.0194  3.976906e-01  6.525170e+03
4909.3571  4.063027e-01  6.445099e+03
4909.6948  4.268601e-01  6.390995e+03
4910.0324  5.091130e-01  6.494200e+03
4910.3701  6.082682e-01  6.636098e+03
4910.7078  6.515243e-01  6.624020e+03
4911.0455  6.876722e-01  6.586757e+03
4911.3831  6.843352e-01  6.438508e+03
4911.7208  7.229521e-01  6.394368e+03
4912.0585  7.869517e-01  6.410310e+03
4912.3961  8.164670e-01  6.327837e+03
4912.7338  1.000000e+00  6.645084e+03
4913.0715  1.959966e-01  4.343783e+03
4913.4091 -1.454243e+00 -2.027343e+02
4913.7468 -1.562916e+00 -6.818451e+02
4914.0845 -1.229277e+00  0.000000e+00
4914.4222 -1.150257e+00  0.000000e+00
4914.7598 -1.067855e+00  0.000000e+00
4915.0975 -9.819710e-01  0.000000e+00
4915.4352 -8.925020e-01  0.000000e+00
4915.7728 -7.993433e-01  0.000000e+00
4916.1105 -7.023880e-01  0.000000e+00
4916.4482 -6.015267e-01  0.000000e+00
4916.7859 -4.966474e-01  0.000000e+00
4917.1235 -3.876358e-01  0.000000e+00
