# Wavelength Flux(Normalised) Flux(Original)
3847.2827  2.724891e-02  2.819852e+02
3847.6204  3.020814e-02  3.018289e+02
3847.9581  3.652820e-02  3.268373e+02
3848.2958  3.218846e-02  3.321083e+02
3848.6335  3.426066e-02  3.480278e+02
3848.9711  2.767028e-02  3.478182e+02
3849.3088  1.077997e-02  3.285952e+02
3849.6465  1.167608e-02  3.403288e+02
3849.9842  1.178502e-02  3.500170e+02
3850.3219 -1.049204e-02  3.192778e+02
3850.6596 -2.044738e-02  3.098531e+02
3850.9973  5.051666e-03  3.629015e+02
3851.3350  1.341232e-03  3.634601e+02
3851.6727 -4.429322e-03  3.598286e+02
3852.0104 -2.553775e-04  3.733756e+02
3852.3480  7.493831e-03  3.927964e+02
3852.6857 -3.790973e-03  3.779077e+02
3853.0234 -1.986338e-02  3.540625e+02
3853.3611 -6.041165e-03  3.829525e+02
3853.6988  1.835359e-02  4.302377e+02
3854.0365  2.138092e-02  4.391407e+02
3854.3742  1.387289e-02  4.289409e+02
3854.7119  4.846532e-03  4.156896e+02
3855.0496  8.493816e-03  4.246399e+02
3855.3872 -3.381762e-03  4.056686e+02
3855.7249 -1.878656e-02  3.801188e+02
3856.0626 -4.100119e-02  3.421719e+02
3856.4003 -3.717633e-02  3.502558e+02
3856.7380 -1.720720e-02  3.867889e+02
3857.0757 -5.095654e-04  4.172598e+02
3857.4134 -5.593630e-03  4.087668e+02
3857.7511 -1.457038e-02  3.931335e+02
3858.0888 -1.280581e-02  3.963945e+02
3858.4265 -1.361618e-02  3.948831e+02
3858.7641 -2.410843e-02  3.759731e+02
3859.1018 -3.291165e-02  3.598960e+02
3859.4395 -1.882471e-02  3.843626e+02
3859.7772 -1.441161e-02  3.914780e+02
3860.1149 -1.696707e-02  3.860629e+02
3860.4526 -1.216056e-02  3.936098e+02
3860.7903  7.119539e-04  4.153802e+02
3861.1280 -1.397312e-03  4.103996e+02
3861.4657 -1.621979e-02  3.827107e+02
3861.8034 -2.012653e-02  3.743392e+02
3862.1410 -1.030098e-02  3.903019e+02
3862.4787 -2.322406e-03  4.029033e+02
3862.8164  8.403869e-03  4.203215e+02
3863.1541  8.409236e-03  4.186136e+02
3863.4918  4.124196e-04  4.026213e+02
3863.8295  8.468834e-03  4.151268e+02
3864.1672  1.575321e-02  4.262178e+02
3864.5049  7.665469e-03  4.099384e+02
3864.8426  1.912034e-02  4.283804e+02
3865.1802  3.063160e-02  4.468988e+02
3865.5179  2.306984e-02  4.314831e+02
3865.8556  1.857374e-02  4.215057e+02
3866.1933  1.387895e-02  4.111669e+02
3866.5310  4.838673e-03  3.930976e+02
3866.8687  1.187057e-02  4.036093e+02
3867.2064  1.169439e-02  4.013091e+02
3867.5441  6.361227e-03  3.898485e+02
3867.8818  2.457153e-02  4.202668e+02
3868.2195  3.077206e-02  4.293468e+02
3868.5571  1.912276e-02  4.067071e+02
3868.8948  2.933234e-02  4.229615e+02
3869.2325  4.091340e-02  4.416823e+02
3869.5702  1.554771e-02  3.947348e+02
3869.9079  1.245519e-02  3.874272e+02
3870.2456  2.369679e-02  4.056449e+02
3870.5833  2.676092e-02  4.093602e+02
3870.9210  4.530179e-02  4.406375e+02
3871.2587  4.272604e-02  4.344086e+02
3871.5963  2.830872e-02  4.071684e+02
3871.9340  2.612200e-02  4.017243e+02
3872.2717  4.792171e-02  4.389824e+02
3872.6094  4.971726e-02  4.407200e+02
3872.9471  4.163694e-02  4.249489e+02
3873.2848  4.032206e-02  4.212622e+02
3873.6225  3.732954e-02  4.146477e+02
3873.9602  3.642115e-02  4.117958e+02
3874.2979  3.673111e-02  4.111682e+02
3874.6356  2.245149e-02  3.846559e+02
3874.9732  1.488748e-02  3.701450e+02
3875.3109  3.734335e-02  4.090760e+02
3875.6486  5.840416e-02  4.455875e+02
3875.9863  4.235778e-02  4.161764e+02
3876.3240  3.988810e-02  4.109697e+02
3876.6617  4.141329e-02  4.129293e+02
3876.9994  3.817298e-02  4.064779e+02
3877.3371  2.382546e-02  3.803388e+02
3877.6748  2.669468e-02  3.848781e+02
3878.0124  4.995960e-02  4.257488e+02
3878.3501  5.641922e-02  4.367997e+02
3878.6878  1.198847e-02  3.574206e+02
3879.0255 -1.648006e-02  3.064891e+02
3879.3632 -8.826076e-03  3.198542e+02
3879.7009  2.272593e-02  3.757782e+02
3880.0386  2.026355e-02  3.712803e+02
3880.3763 -3.734660e-03  3.285498e+02
3880.7140 -9.235925e-03  3.187728e+02
3881.0517 -1.295746e-02  3.122223e+02
3881.3893  2.020434e-04  3.357510e+02
3881.7270  7.892998e-03  3.496161e+02
3882.0647 -6.597743e-03  3.240978e+02
3882.4024 -1.317223e-04  3.359044e+02
3882.7401  6.577465e-03  3.482023e+02
3883.0778 -1.393459e-02  3.121534e+02
3883.4155 -2.554255e-02  2.919952e+02
3883.7532 -4.778307e-03  3.294583e+02
3884.0909 -6.697470e-03  3.266415e+02
3884.4285 -2.680671e-02  2.915340e+02
3884.7662 -4.436800e-02  2.610115e+02
3885.1039 -5.205696e-02  2.480975e+02
3885.4416 -4.685021e-02  2.581672e+02
3885.7793 -5.534795e-02  2.439191e+02
3886.1170 -5.192231e-02  2.509238e+02
3886.4547 -5.720007e-02  2.425016e+02
3886.7924 -8.344673e-02  1.968411e+02
3887.1301 -8.845118e-02  1.890013e+02
3887.4678 -9.207767e-02  1.836585e+02
3887.8054 -9.446047e-02  1.805728e+02
3888.1431 -8.974012e-02  1.901626e+02
3888.4808 -1.081543e-01  1.586580e+02
3888.8185 -1.235100e-01  1.326342e+02
3889.1562 -1.420773e-01  1.009410e+02
3889.4939 -1.523894e-01  8.396765e+01
3889.8316 -1.174512e-01  1.474979e+02
3890.1693 -1.069879e-01  1.675450e+02
3890.5070 -1.166716e-01  1.518033e+02
3890.8447 -1.209500e-01  1.457094e+02
3891.1823 -1.204629e-01  1.481242e+02
3891.5200 -1.278410e-01  1.365869e+02
3891.8577 -1.321500e-01  1.305396e+02
3892.1954 -1.050843e-01  1.803146e+02
3892.5331 -8.165574e-02  2.236523e+02
3892.8708 -7.760510e-02  2.325613e+02
3893.2085 -7.991812e-02  2.301825e+02
3893.5462 -6.689754e-02  2.550971e+02
3893.8839 -7.422921e-02  2.438471e+02
3894.2215 -8.727749e-02  2.224567e+02
3894.5592 -8.311289e-02  2.316981e+02
3894.8969 -6.264982e-02  2.699442e+02
3895.2346 -3.897405e-02  3.139248e+02
3895.5723 -2.920078e-02  3.332044e+02
3895.9100 -2.104931e-02  3.496196e+02
3896.2477 -8.559186e-03  3.737682e+02
3896.5854  1.042964e-02  4.094902e+02
3896.9231  4.525239e-03  4.009633e+02
3897.2608 -4.420574e-03  3.870433e+02
3897.5984  3.270497e-03  4.027216e+02
3897.9361 -4.003328e-03  3.918024e+02
3898.2738 -1.555116e-02  3.732954e+02
3898.6115 -1.185298e-02  3.819103e+02
3898.9492 -5.814923e-03  3.946964e+02
3899.2869  6.870592e-03  4.193124e+02
3899.6246  1.436130e-02  4.346995e+02
3899.9623  1.384254e-03  4.136981e+02
3900.3000 -4.830906e-03  4.047273e+02
3900.6376  2.114009e-03  4.191636e+02
3900.9753 -1.030969e-02  3.991632e+02
3901.3130 -2.997710e-03  4.142609e+02
3901.6507  7.788406e-03  4.355394e+02
3901.9884  4.150662e-03  4.311715e+02
3902.3261  1.092597e-02  4.453215e+02
3902.6638  8.542745e-03  4.431863e+02
3903.0015 -2.630428e-03  4.254205e+02
3903.3392  1.555863e-02  4.598658e+02
3903.6769  3.693115e-02  4.999702e+02
3904.0145  3.650254e-02  5.013051e+02
3904.3522  2.498791e-02  4.829233e+02
3904.6899  1.678569e-02  4.704277e+02
3905.0276  2.064092e-02  4.793680e+02
3905.3653  8.373132e-03  4.596328e+02
3905.7030  1.957903e-02  4.816326e+02
3906.0407  2.011656e-02  4.846550e+02
3906.3784  3.942295e-03  4.579529e+02
3906.7161  9.544286e-03  4.699655e+02
3907.0537  1.029939e-02  4.733506e+02
3907.3914  2.542361e-02  5.022777e+02
3907.7291  4.501232e-02  5.391338e+02
3908.0668  3.013722e-02  5.146956e+02
3908.4045 -1.652318e-02  4.337256e+02
3908.7422 -2.680995e-02  4.174240e+02
3909.0799 -1.470646e-03  4.644609e+02
3909.4176  2.546029e-02  5.143156e+02
3909.7553  2.578715e-02  5.168496e+02
3910.0930  1.888035e-02  5.065073e+02
3910.4306  2.768199e-02  5.240839e+02
3910.7683  2.129631e-02  5.146399e+02
3911.1060  1.910035e-02  5.126313e+02
3911.4437  3.249417e-02  5.383295e+02
3911.7814  5.172262e-02  5.743872e+02
3912.1191  3.584971e-02  5.480115e+02
3912.4568 -2.073755e-02  4.492208e+02
3912.7945 -4.248565e-02  4.123648e+02
3913.1322 -5.158743e-03  4.805395e+02
3913.4699  2.015843e-02  5.273411e+02
3913.8075  1.200765e-02  5.146121e+02
3914.1452  8.256350e-03  5.096884e+02
3914.4829  5.223352e-03  5.060238e+02
3914.8206 -3.471025e-03  4.922737e+02
3915.1583 -7.081220e-03  4.875458e+02
3915.4960 -7.463175e-03  4.885394e+02
3915.8337  9.768025e-03  5.208339e+02
3916.1714  2.939585e-02  5.573707e+02
3916.5091  3.713602e-02  5.727494e+02
3916.8467  4.404930e-02  5.866381e+02
3917.1844  4.045953e-02  5.818303e+02
3917.5221  5.524978e-02  6.096862e+02
3917.8598  6.564213e-02  6.297015e+02
3918.1975  5.574538e-02  6.136185e+02
3918.5352  4.216274e-02  5.909609e+02
3918.8729  2.067000e-02  5.542172e+02
3919.2106  2.313158e-02  5.600487e+02
3919.5483  3.558941e-02  5.836351e+02
3919.8860  2.208243e-02  5.610302e+02
3920.2236  2.257723e-02  5.633026e+02
3920.5613  1.753627e-02  5.557107e+02
3920.8990  6.264856e-05  5.259902e+02
3921.2367  1.815606e-02  5.594947e+02
3921.5744  3.662498e-02  5.936462e+02
3921.9121  2.671456e-02  5.773126e+02
3922.2498  3.827699e-02  5.991416e+02
3922.5875  4.634412e-02  6.147346e+02
3922.9252  4.457124e-02  6.128094e+02
3923.2628  4.964118e-02  6.230317e+02
3923.6005  5.563572e-02  6.348777e+02
3923.9382  3.546984e-02  6.001846e+02
3924.2759  1.933952e-02  5.726472e+02
3924.6136  3.050660e-02  5.936301e+02
3924.9513  3.704844e-02  6.063683e+02
3925.2890  1.731426e-02  5.723622e+02
3925.6267  1.510090e-02  5.694919e+02
3925.9644  4.013231e-02  6.150487e+02
3926.3021  5.032508e-02  6.341997e+02
3926.6397  3.496720e-02  6.078969e+02
3926.9774  3.077857e-02  6.014359e+02
3927.3151  3.997121e-02  6.187505e+02
3927.6528  1.817667e-02  5.809444e+02
3927.9905  1.668580e-02  5.792236e+02
3928.3282  3.317941e-02  6.094644e+02
3928.6659  4.190737e-02  6.258777e+02
3929.0036  3.162390e-02  6.084664e+02
3929.3413  4.336194e-03  5.608000e+02
3929.6789 -9.469234e-03  5.370901e+02
3930.0166 -4.448988e-03  5.468384e+02
3930.3543  1.192774e-02  5.767635e+02
3930.6920  2.091656e-02  5.935342e+02
3931.0297  1.990341e-02  5.925023e+02
3931.3674  2.528696e-02  6.028282e+02
3931.7051  1.952891e-02  5.933256e+02
3932.0428 -3.676024e-03  5.527825e+02
3932.3805 -2.392652e-04  5.595979e+02
3932.7182  3.303121e-03  5.665853e+02
3933.0558 -1.698692e-02  5.311782e+02
3933.3935 -1.437728e-02  5.364763e+02
3933.7312 -1.354437e-02  5.385999e+02
3934.0689 -3.733588e-02  4.969215e+02
3934.4066 -4.726217e-02  4.798839e+02
3934.7443 -4.398561e-02  4.863096e+02
3935.0820 -3.594362e-02  5.011953e+02
3935.4197 -1.692123e-02  5.355928e+02
3935.7574  7.534549e-03  5.796387e+02
3936.0951  1.638520e-02  5.959224e+02
3936.4327  8.682935e-03  5.827588e+02
3936.7704  2.938814e-02  6.200972e+02
3937.1081  4.685644e-02  6.516675e+02
3937.4458  2.779100e-02  6.182614e+02
3937.7835 -2.399991e-03  5.650601e+02
3938.1212  1.443492e-02  5.954695e+02
3938.4589  1.847470e-02  6.031155e+02
3938.7966  2.352966e-02  6.125560e+02
3939.1343  2.628596e-02  6.178987e+02
3939.4719  3.073348e-03  5.770533e+02
3939.8096 -3.793184e-03  5.652648e+02
3940.1473  8.653565e-03  5.878100e+02
3940.4850 -9.784549e-03  5.554263e+02
3940.8227 -1.409148e-02  5.481620e+02
3941.1604  1.722777e-02  6.042401e+02
3941.4981  2.447504e-02  6.175049e+02
3941.8358  1.503298e-02  6.010847e+02
3942.1735  1.363129e-02  5.989545e+02
3942.5112  1.488939e-02  6.015466e+02
3942.8488  1.570786e-02  6.033501e+02
3943.1865  7.693387e-03  5.894401e+02
3943.5242  7.878480e-03  5.901044e+02
3943.8619  3.148636e-03  5.820228e+02
3944.1996 -3.618837e-03  5.703123e+02
3944.5373  3.606140e-03  5.834778e+02
3944.8750  1.556087e-02  6.050487e+02
3945.2127  1.883147e-02  6.111727e+02
3945.5504  1.701776e-03  5.810162e+02
3945.8880 -7.821819e-03  5.643807e+02
3946.2257  9.979700e-03  5.963312e+02
3946.5634  8.680397e-03  5.943128e+02
3946.9011  2.008088e-02  6.148740e+02
3947.2388  2.919077e-02  6.313591e+02
3947.5765 -5.644578e-03  5.696978e+02
3947.9142 -2.228888e-02  5.403815e+02
3948.2519  1.317253e-02  6.037179e+02
3948.5896  2.248462e-02  6.205536e+02
3948.9273  1.654009e-02  6.102583e+02
3949.2649  1.054774e-02  5.998768e+02
3949.6026  1.444597e-02  6.070818e+02
3949.9403 -5.148219e-03  5.725117e+02
3950.2780  4.341464e-03  5.896584e+02
3950.6157  2.468568e-02  6.261067e+02
3950.9534  3.059680e-02  6.368900e+02
3951.2911  1.232424e-02  6.046702e+02
3951.6288  1.068898e-02  6.020356e+02
3951.9665  1.106452e-02  6.029776e+02
3952.3041  2.687984e-02  6.313760e+02
3952.6418  3.441515e-02  6.450522e+02
3952.9795  1.498795e-02  6.107853e+02
3953.3172  1.372311e-02  6.088168e+02
3953.6549  1.027946e-02  6.029761e+02
3953.9926  5.331755e-03  5.944634e+02
3954.3303  1.036883e-02  6.037085e+02
3954.6680  3.580696e-03  5.919288e+02
3955.0057 -1.683036e-02  5.559280e+02
3955.3434 -4.052248e-03  5.789478e+02
3955.6810  9.018166e-03  6.024911e+02
3956.0187  2.662378e-04  5.872336e+02
3956.3564 -2.440203e-02  5.436776e+02
3956.6941 -3.033718e-02  5.334374e+02
3957.0318  2.727577e-03  5.925516e+02
3957.3695  1.795821e-03  5.912178e+02
3957.7072 -2.560140e-02  5.428278e+02
3958.0449 -4.504483e-02  5.085864e+02
3958.3826 -4.601623e-02  5.071976e+02
3958.7202 -2.609722e-02  5.429618e+02
3959.0579 -2.549636e-02  5.443801e+02
3959.3956 -4.236284e-02  5.147437e+02
3959.7333 -4.390624e-02  5.123611e+02
3960.0710 -5.680085e-02  4.898000e+02
3960.4087 -7.016201e-02  4.664158e+02
3960.7464 -4.953542e-02  5.034756e+02
3961.0841 -4.417650e-02  5.133931e+02
3961.4218 -5.660408e-02  4.916895e+02
3961.7595 -7.435714e-02  4.605232e+02
3962.0971 -7.872583e-02  4.531644e+02
3962.4348 -5.490613e-02  4.959380e+02
3962.7725 -4.622853e-02  5.117933e+02
3963.1102 -6.984098e-02  4.702380e+02
3963.4479 -8.867668e-02  4.371847e+02
3963.7856 -8.665108e-02  4.412351e+02
3964.1233 -8.538111e-02  4.439501e+02
3964.4610 -9.970924e-02  4.189366e+02
3964.7987 -8.762110e-02  4.409053e+02
3965.1364 -9.123570e-02  4.349597e+02
3965.4740 -1.115289e-01  3.993649e+02
3965.8117 -1.309921e-01  3.652545e+02
3966.1494 -1.520836e-01  3.282578e+02
3966.4871 -1.767707e-01  2.848763e+02
3966.8248 -1.682010e-01  3.006415e+02
3967.1625 -1.587733e-01  3.179414e+02
3967.5002 -1.581338e-01  3.196235e+02
3967.8379 -1.711956e-01  2.969511e+02
3968.1756 -2.013178e-01  2.439512e+02
3968.5132 -2.113247e-01  2.267302e+02
3968.8509 -1.946374e-01  2.569866e+02
3969.1886 -1.958210e-01  2.554744e+02
3969.5263 -2.076077e-01  2.351176e+02
3969.8640 -2.089423e-01  2.333564e+02
3970.2017 -2.129573e-01  2.268389e+02
3970.5394 -2.349696e-01  1.883284e+02
3970.8771 -2.144279e-01  2.254978e+02
3971.2148 -1.850253e-01  2.784337e+02
3971.5525 -1.904625e-01  2.694272e+02
3971.8901 -2.029905e-01  2.478222e+02
3972.2278 -2.220221e-01  2.146624e+02
3972.5655 -2.202783e-01  2.184559e+02
3972.9032 -2.131954e-01  2.317535e+02
3973.2409 -2.007072e-01  2.546733e+02
3973.5786 -1.747578e-01  3.015400e+02
3973.9163 -1.554352e-01  3.366333e+02
3974.2540 -1.393124e-01  3.660470e+02
3974.5917 -1.205647e-01  4.001386e+02
3974.9293 -1.353827e-01  3.745537e+02
3975.2670 -1.444816e-01  3.591489e+02
3975.6047 -1.423984e-01  3.636387e+02
3975.9424 -1.146642e-01  4.137515e+02
3976.2801 -9.735754e-02  4.453324e+02
3976.6178 -9.284965e-02  4.541647e+02
3976.9555 -7.554683e-02  4.857594e+02
3977.2932 -7.638945e-02  4.850980e+02
3977.6309 -8.802018e-02  4.652634e+02
3977.9686 -7.987767e-02  4.806000e+02
3978.3062 -6.323364e-02  5.110643e+02
3978.6439 -5.170342e-02  5.324454e+02
3978.9816 -5.864196e-02  5.209954e+02
3979.3193 -6.325958e-02  5.136826e+02
3979.6570 -4.892700e-02  5.400773e+02
3979.9947 -1.886988e-02  5.944436e+02
3980.3324 -2.431154e-02  5.856957e+02
3980.6701 -3.851328e-02  5.613805e+02
3981.0078 -2.418269e-02  5.878116e+02
3981.3454 -1.787478e-02  5.999867e+02
3981.6831 -2.686381e-02  5.849704e+02
3982.0208 -1.621562e-02  6.048829e+02
3982.3585 -7.023247e-03  6.222164e+02
3982.6962 -8.905359e-03  6.198668e+02
3983.0339 -1.200531e-02  6.153612e+02
3983.3716 -2.000424e-02  6.021537e+02
3983.7093 -3.892282e-02  5.695382e+02
3984.0470 -5.992480e-02  5.332274e+02
3984.3847 -6.812984e-02  5.196814e+02
3984.7223 -4.903423e-02  5.546909e+02
3985.0600 -2.372046e-02  6.007667e+02
3985.3977 -2.504155e-03  6.395654e+02
3985.7354 -1.331181e-03  6.427319e+02
3986.0731  1.436710e-02  6.717362e+02
3986.4108  3.048308e-02  7.014921e+02
3986.7485  2.608594e-02  6.947800e+02
3987.0862  1.115208e-02  6.693401e+02
3987.4239  2.659895e-03  6.553633e+02
3987.7616  2.084321e-02  6.888295e+02
3988.0992  1.321943e-02  6.764136e+02
3988.4369  8.714598e-03  6.695520e+02
3988.7746  1.448805e-02  6.809755e+02
3989.1123  1.238337e-02  6.783979e+02
3989.4500  8.841720e-03  6.732731e+02
3989.7877  2.534686e-02  7.038033e+02
3990.1254  2.859220e-02  7.107626e+02
3990.4631  1.283150e-02  6.839327e+02
3990.8008  1.192932e-02  6.835317e+02
3991.1384  1.896487e-02  6.972531e+02
3991.4761  2.910683e-02  7.165054e+02
3991.8138  2.721503e-02  7.143663e+02
3992.1515  2.101388e-02  7.045713e+02
3992.4892  3.374917e-03  6.744443e+02
3992.8269 -4.507734e-03  6.616727e+02
3993.1646  5.239014e-04  6.718721e+02
3993.5023  1.453393e-02  6.980433e+02
3993.8400  2.554920e-02  7.188956e+02
3994.1777  3.373851e-02  7.347290e+02
3994.5153  2.625523e-02  7.226993e+02
3994.8530  2.056711e-02  7.138678e+02
3995.1907  1.956265e-02  7.133706e+02
3995.5284  2.121797e-02  7.176088e+02
3995.8661  1.183021e-02  7.022156e+02
3996.2038  1.148706e-02  7.029110e+02
3996.5415  1.993403e-02  7.192424e+02
3996.8792  2.568810e-02  7.307905e+02
3997.2169  2.895295e-02  7.379172e+02
3997.5545  3.216744e-02  7.449592e+02
3997.8922  2.725673e-02  7.375577e+02
3998.2299  1.412013e-02  7.155335e+02
3998.5676  2.328505e-02  7.331705e+02
3998.9053  4.392036e-02  7.712086e+02
3999.2430  4.694511e-02  7.779357e+02
3999.5807  2.616586e-02  7.423383e+02
3999.9184  1.199187e-02  7.184904e+02
4000.2561  5.003599e-03  7.074240e+02
4000.5938 -5.054492e-03  6.909025e+02
4000.9314 -8.304234e-03  6.864911e+02
4001.2691 -7.684811e-03  6.889633e+02
4001.6068 -1.414937e-03  7.014863e+02
4001.9445  1.490697e-04  7.056445e+02
4002.2822  7.924334e-03  7.208505e+02
4002.6199  2.416482e-02  7.511122e+02
4002.9576  1.551337e-02  7.371135e+02
4003.2953 -5.958323e-03  7.003203e+02
4003.6330 -2.290670e-04  7.118984e+02
4003.9706  3.269051e-02  7.718289e+02
4004.3083  3.478633e-02  7.769503e+02
4004.6460  2.963184e-02  7.691812e+02
4004.9837  3.314847e-02  7.768329e+02
4005.3214  2.619192e-02  7.658628e+02
4005.6591  5.998776e-03  7.313568e+02
4005.9968  1.129890e-02  7.421846e+02
4006.3345  3.738717e-02  7.899792e+02
4006.6722  4.086952e-02  7.975770e+02
4007.0099  3.134070e-02  7.820392e+02
4007.3475  1.498003e-02  7.543538e+02
4007.6852  4.476929e-03  7.370850e+02
4008.0229  2.810388e-02  7.805072e+02
4008.3606  4.838177e-02  8.179745e+02
4008.6983  4.891700e-02  8.203355e+02
4009.0360  4.067420e-02  8.070875e+02
4009.3737  2.888732e-02  7.875375e+02
4009.7114  2.275119e-02  7.780355e+02
4010.0491  7.050887e-02  8.643678e+02
4010.3868  1.099283e-01  9.358724e+02
4010.7244 -5.150075e-02  6.502263e+02
4011.0621 -1.850422e-03  7.399226e+02
4011.3998  7.957141e-02  8.861145e+02
4011.7375  2.235569e-02  7.857791e+02
4012.0752  1.516843e-02  7.744036e+02
4012.4129  2.853648e-02  7.995787e+02
4012.7506  1.702077e-02  7.805040e+02
4013.0883  1.630423e-02  7.806310e+02
4013.4260  2.787260e-02  8.026017e+02
4013.7636  1.952922e-02  7.891636e+02
4014.1013  3.332371e-03  7.617585e+02
4014.4390  1.096743e-02  7.767297e+02
4014.7767  7.530008e-03  7.720098e+02
4015.1144  4.728699e-03  7.684188e+02
4015.4521  3.400453e-03  7.674451e+02
4015.7898  2.822564e-02  8.129752e+02
4016.1275  4.971537e-02  8.525718e+02
4016.4652  4.720568e-02  8.494898e+02
4016.8029  3.727193e-02  8.332036e+02
4017.1405  1.393888e-02  7.930879e+02
4017.4782  7.624798e-03  7.832325e+02
4017.8159  9.853107e-03  7.885643e+02
4018.1536  2.371295e-02  8.145763e+02
4018.4913  3.877066e-02  8.427151e+02
4018.8290  2.290840e-02  8.158684e+02
4019.1667  1.494101e-03  7.791456e+02
4019.5044 -7.706559e-04  7.764712e+02
4019.8421  4.342641e-03  7.869128e+02
4020.1797  2.181713e-02  8.193315e+02
4020.5174  4.161998e-02  8.558867e+02
4020.8551  4.059848e-02  8.554080e+02
4021.1928  3.174081e-02  8.409908e+02
4021.5305  3.151388e-02  8.419169e+02
4021.8682  2.642715e-02  8.341970e+02
4022.2059  2.087829e-02  8.256510e+02
4022.5436  3.408461e-02  8.504513e+02
4022.8813  2.530451e-02  8.361507e+02
4023.2190  1.013784e-02  8.104889e+02
4023.5566  2.224209e-02  8.333159e+02
4023.8943  3.068591e-02  8.496291e+02
4024.2320  7.778131e-03  8.101879e+02
4024.5697 -1.961588e-04  7.972966e+02
4024.9074 -8.686339e-03  7.834831e+02
4025.2451 -1.709544e-02  7.698087e+02
4025.5828 -1.654233e-02  7.720659e+02
4025.9205 -7.398024e-03  7.895949e+02
4026.2582  1.722453e-02  8.346422e+02
4026.5958  2.497848e-03  8.097131e+02
4026.9335 -6.896472e-03  7.942606e+02
4027.2712  8.530376e-03  8.229399e+02
4027.6089  3.442188e-02  8.702221e+02
4027.9466  4.557464e-02  8.912902e+02
4028.2843  2.605444e-02  8.578097e+02
4028.6220  3.986793e-03  8.197936e+02
4028.9597 -5.025023e-03  8.049879e+02
4029.2974 -2.237512e-04  8.147388e+02
4029.6351  1.187743e-03  8.184562e+02
4029.9727  3.303476e-02  8.762885e+02
4030.3104  2.661177e-02  8.660627e+02
4030.6481 -2.577069e-03  8.153485e+02
4030.9858 -1.184174e-02  8.000576e+02
4031.3235 -1.996437e-02  7.867914e+02
4031.6612 -2.966442e-02  7.707142e+02
4031.9989 -2.244117e-02  7.847239e+02
4032.3366  6.922116e-03  8.380970e+02
4032.6743  9.572958e-03  8.439636e+02
4033.0119  1.502531e-02  8.548055e+02
4033.3496  2.421920e-02  8.722944e+02
4033.6873  1.774783e-02  8.619209e+02
4034.0250  1.117981e-02  8.513691e+02
4034.3627  1.803439e-03  8.358171e+02
4034.7004 -3.412276e-03  8.276572e+02
4035.0381  1.574380e-02  8.628290e+02
4035.3758  1.449456e-03  8.385125e+02
4035.7135 -7.499051e-03  8.236954e+02
4036.0512 -9.507981e-03  8.212119e+02
4036.3888  1.562684e-03  8.419801e+02
4036.7265  1.243260e-02  8.623848e+02
4037.0642  1.372694e-02  8.657555e+02
4037.4019  4.457116e-03  8.503344e+02
4037.7396 -4.673559e-03  8.351541e+02
4038.0773 -2.893052e-02  7.930695e+02
4038.4150 -3.350746e-02  7.859734e+02
4038.7527  8.132736e-03  8.610545e+02
4039.0904  1.662249e-02  8.771805e+02
4039.4281 -2.261719e-03  8.446234e+02
4039.7657 -7.397717e-03  8.365067e+02
4040.1034  5.111876e-03  8.597610e+02
4040.4411  2.083195e-02  8.887175e+02
4040.7788  1.626946e-02  8.816008e+02
4041.1165  1.606674e-02  8.822301e+02
4041.4542  7.430508e-03  8.678562e+02
4041.7919  2.766797e-03  8.605397e+02
4042.1296  2.103589e-02  8.939958e+02
4042.4673  4.612212e-02  9.395677e+02
4042.8049  4.522422e-02  9.389279e+02
4043.1426  1.850053e-02  8.923578e+02
4043.4803  1.967678e-02  8.953931e+02
4043.8180  2.318372e-02  9.025663e+02
4044.1557  3.253799e-03  8.680574e+02
4044.4934 -1.459030e-03  8.606011e+02
4044.8311 -9.371405e-03  8.474490e+02
4045.1688 -5.685250e-03  8.549150e+02
4045.5065  8.938034e-03  8.818231e+02
4045.8442 -1.251352e-02  8.445762e+02
4046.1818 -6.338897e-02  7.550011e+02
4046.5195 -2.176989e-01  4.814917e+02
4046.8572 -5.389978e-01 -8.896533e+01
4047.1949 -1.031222e+00 -9.633699e+02
4047.5326 -1.468918e+00 -1.740817e+03
4047.8703 -1.430020e+00 -1.670788e+03
4048.2080 -7.576989e-01 -4.744060e+02
4048.5457 -1.351435e-01  6.334757e+02
4048.8834 -2.808597e-02  8.246886e+02
4049.2210  2.042845e-02  9.117936e+02
4049.5587  1.112061e-02  8.960726e+02
4049.8964 -6.236357e-03  8.660327e+02
4050.2341 -5.397292e-03  8.683431e+02
4050.5718 -2.348613e-03  8.745768e+02
4050.9095 -3.441202e-03  8.734406e+02
4051.2472 -2.365454e-02  8.382980e+02
4051.5849 -2.868918e-02  8.301405e+02
4051.9226 -1.405903e-02  8.569454e+02
4052.2603  3.807704e-04  8.834062e+02
4052.5979  5.928725e-03  8.940499e+02
4052.9356  4.508594e-03  8.922974e+02
4053.2733  3.568266e-03  8.913925e+02
4053.6110 -4.365507e-03  8.780464e+02
4053.9487 -6.125914e-03  8.756725e+02
4054.2864 -4.836159e-03  8.787172e+02
4054.6241 -1.141583e-02  8.677631e+02
4054.9618  6.786406e-03  9.008712e+02
4055.2995  1.463516e-02  9.155635e+02
4055.6371  1.264391e-02  9.127532e+02
4055.9748  8.873384e-03  9.067739e+02
4056.3125 -9.653570e-03  8.745497e+02
4056.6502 -2.136132e-02  8.544467e+02
4056.9879 -1.412716e-02  8.680214e+02
4057.3256  1.751963e-02  9.250022e+02
4057.6633  2.952901e-02  9.470589e+02
4058.0010  3.314583e-02  9.541873e+02
4058.3387  1.796970e-02  9.278933e+02
4058.6764  1.551441e-02  9.242152e+02
4059.0140  1.665930e-02  9.269346e+02
4059.3517 -7.517993e-04  8.966532e+02
4059.6894 -4.311134e-03  8.909989e+02
4060.0271  2.209234e-02  9.386205e+02
4060.3648  5.967316e-04  9.010635e+02
4060.7025 -3.227456e-02  8.432742e+02
4061.0402  7.809587e-03  9.152108e+02
4061.3779  3.143997e-02  9.578854e+02
4061.7156  6.515353e-03  9.142152e+02
4062.0533  8.516849e-03  9.184216e+02
4062.3909  1.401347e-02  9.288394e+02
4062.7286 -1.572192e-02  8.766037e+02
4063.0663 -1.895685e-02  8.714879e+02
4063.4040 -6.846117e-03  8.936565e+02
4063.7417 -7.052800e-03  8.939188e+02
4064.0794 -5.594319e-03  8.971389e+02
4064.4171 -1.141283e-02  8.874158e+02
4064.7548 -1.293671e-02  8.853264e+02
4065.0925 -1.289308e-02  8.860214e+02
4065.4301 -9.832108e-03  8.920789e+02
4065.7678 -4.058565e-03  9.029570e+02
4066.1055 -4.199143e-03  9.033159e+02
4066.4432 -1.119388e-03  9.093986e+02
4066.7809  1.631864e-02  9.410106e+02
4067.1186  9.337602e-03  9.291980e+02
4067.4563  1.108994e-02  9.329127e+02
4067.7940  3.529681e-02  9.765540e+02
4068.1317  2.936798e-02  9.666054e+02
4068.4694  4.070230e-02  9.873522e+02
4068.8070 -1.540210e-01  6.416835e+02
4069.1447 -3.503754e-01  2.931124e+02
4069.4824 -5.827315e-01 -1.194792e+02
4069.8201 -2.937699e-01  3.949390e+02
4070.1578 -2.180094e-02  8.791390e+02
4070.4955  6.848498e-02  1.040267e+03
4070.8332  4.435496e-02  9.979382e+02
4071.1709  4.023863e-02  9.911964e+02
4071.5086  3.359531e-02  9.799597e+02
4071.8462  2.168989e-02  9.593646e+02
4072.1839  4.330928e-03  9.290708e+02
4072.5216 -1.129117e-02  9.018644e+02
4072.8593 -1.639776e-02  8.933557e+02
4073.1970 -1.866355e-02  8.898976e+02
4073.5347 -2.325775e-02  8.822983e+02
4073.8724  6.030810e-04  9.252972e+02
4074.2101 -1.195413e-02  9.035366e+02
4074.5478 -6.352987e-03  9.140648e+02
4074.8855 -1.825463e-03  9.226833e+02
4075.2231 -2.630647e-02  8.797182e+02
4075.5608 -2.304853e-02  8.860784e+02
4075.8985 -1.887607e-02  8.940646e+02
4076.2362 -6.904687e-03  9.159188e+02
4076.5739 -2.730817e-03  9.239073e+02
4076.9116 -9.473292e-03  9.124844e+02
4077.2493 -1.274150e-02  9.072395e+02
4077.5870 -3.131696e-02  8.747753e+02
4077.9247 -3.924569e-02  8.612436e+02
4078.2623 -1.159217e-02  9.109849e+02
4078.6000 -1.169472e-02  9.113705e+02
4078.9377 -2.462396e-02  8.889482e+02
4079.2754 -1.626083e-02  9.043889e+02
4079.6131 -1.810317e-02  9.016827e+02
4079.9508 -1.922609e-02  9.002567e+02
4080.2885 -1.635118e-02  9.059406e+02
4080.6262 -8.926563e-03  9.197157e+02
4080.9639  1.611148e-02  9.648123e+02
4081.3016  2.648686e-02  9.838367e+02
4081.6392  2.153661e-02  9.756102e+02
4081.9769 -6.722784e-03  9.259365e+02
4082.3146 -3.060456e-02  8.840485e+02
4082.6523 -2.469091e-02  8.951444e+02
4082.9900  1.443400e-02  9.652985e+02
4083.3277  2.446815e-02  9.837247e+02
4083.6654  7.210842e-03  9.536228e+02
4084.0031 -3.446692e-02  8.800980e+02
4084.3408 -4.563112e-02  8.608346e+02
4084.6785 -1.212632e-02  9.210039e+02
4085.0161 -1.382869e-02  9.185696e+02
4085.3538 -2.294697e-02  9.029503e+02
4085.6915 -2.825756e-02  8.941041e+02
4086.0292 -3.861861e-02  8.762794e+02
4086.3669 -4.902313e-02  8.583798e+02
4086.7046 -4.393247e-02  8.680362e+02
4087.0423 -2.847201e-02  8.961348e+02
4087.3800 -1.814303e-02  9.151111e+02
4087.7177 -1.672812e-02  9.182390e+02
4088.0553 -1.290280e-02  9.256558e+02
4088.3930 -3.041691e-02  8.951294e+02
4088.7307 -3.718833e-02  8.837086e+02
4089.0684 -6.449249e-02  8.357793e+02
4089.4061 -6.978013e-02  8.270029e+02
4089.7438 -4.809268e-02  8.661970e+02
4090.0815 -3.164510e-02  8.960765e+02
4090.4192 -4.768188e-02  8.681954e+02
4090.7569 -6.313397e-02  8.413572e+02
4091.0946 -6.295788e-02  8.423125e+02
4091.4322 -5.838888e-02  8.510827e+02
4091.7699 -7.963339e-02  8.139546e+02
4092.1076 -1.036151e-01  7.719628e+02
4092.4453 -1.027426e-01  7.741703e+02
4092.7830 -1.001951e-01  7.793602e+02
4093.1207 -1.092490e-01  7.639240e+02
4093.4584 -1.262155e-01  7.344214e+02
4093.7961 -1.295202e-01  7.292162e+02
4094.1338 -1.166760e-01  7.527310e+02
4094.4714 -1.326510e-01  7.250031e+02
4094.8091 -1.376654e-01  7.167696e+02
4095.1468 -1.570532e-01  6.829811e+02
4095.4845 -1.735708e-01  6.543007e+02
4095.8222 -1.753278e-01  6.518719e+02
4096.1599 -1.593543e-01  6.809758e+02
4096.4976 -1.548456e-01  6.896973e+02
4096.8353 -1.663482e-01  6.699515e+02
4097.1730 -1.991043e-01  6.124171e+02
4097.5107 -2.341959e-01  5.507341e+02
4097.8483 -2.489112e-01  5.252889e+02
4098.1860 -2.479552e-01  5.277151e+02
4098.5237 -2.425457e-01  5.380652e+02
4098.8614 -2.418661e-01  5.400092e+02
4099.1991 -2.608449e-01  5.070010e+02
4099.5368 -2.846771e-01  4.653672e+02
4099.8745 -2.869530e-01  4.620698e+02
4100.2122 -3.046907e-01  4.312830e+02
4100.5499 -3.279733e-01  3.906410e+02
4100.8875 -3.329194e-01  3.826101e+02
4101.2252 -3.604025e-01  3.345085e+02
4101.5629 -3.690038e-01  3.199877e+02
4101.9006 -3.722455e-01  3.150026e+02
4102.2383 -3.577954e-01  3.414821e+02
4102.5760 -3.594649e-01  3.393026e+02
4102.9137 -3.640104e-01  3.320142e+02
4103.2514 -3.691119e-01  3.237422e+02
4103.5891 -3.682336e-01  3.261088e+02
4103.9268 -3.503946e-01  3.586401e+02
4104.2644 -3.040079e-01  4.419407e+02
4104.6021 -2.902992e-01  4.671381e+02
4104.9398 -2.975394e-01  4.550894e+02
4105.2775 -2.880289e-01  4.728321e+02
4105.6152 -2.761461e-01  4.947987e+02
4105.9529 -2.521423e-01  5.383243e+02
4106.2906 -2.254085e-01  5.867100e+02
4106.6283 -2.335340e-01  5.731139e+02
4106.9660 -2.263202e-01  5.867998e+02
4107.3036 -1.903509e-01  6.516244e+02
4107.6413 -1.756748e-01  6.785908e+02
4107.9790 -1.979551e-01  6.398465e+02
4108.3167 -2.084669e-01  6.220346e+02
4108.6544 -2.136378e-01  6.137256e+02
4108.9921 -2.041916e-01  6.314143e+02
4109.3298 -1.759274e-01  6.825710e+02
4109.6675 -1.754412e-01  6.843381e+02
4110.0052 -1.577370e-01  7.167281e+02
4110.3429 -1.405600e-01  7.481863e+02
4110.6805 -1.325742e-01  7.633062e+02
4111.0182 -1.406549e-01  7.498621e+02
4111.3559 -1.217826e-01  7.843517e+02
4111.6936 -1.095134e-01  8.071055e+02
4112.0313 -9.479447e-02  8.342208e+02
4112.3690 -8.661380e-02  8.497156e+02
4112.7067 -1.025690e-01  8.222974e+02
4113.0444 -1.221079e-01  7.885123e+02
4113.3821 -1.118170e-01  8.077766e+02
4113.7198 -9.174192e-02  8.444448e+02
4114.0574 -7.967412e-02  8.668801e+02
4114.3951 -4.582380e-02  9.280550e+02
4114.7328 -2.831615e-02  9.601749e+02
4115.0705 -5.072433e-02  9.213218e+02
4115.4082 -6.196356e-02  9.023351e+02
4115.7459 -2.669011e-02  9.660633e+02
4116.0836 -2.882011e-02  9.632861e+02
4116.4213 -2.555873e-02  9.701015e+02
4116.7590 -1.251199e-02  9.943230e+02
4117.0966 -3.186397e-02  9.609385e+02
4117.4343 -1.011637e-02  1.000643e+03
4117.7720  4.998102e-03  1.028558e+03
4118.1097  7.518360e-03  1.034084e+03
4118.4474  4.176171e-04  1.022507e+03
4118.7851 -3.244208e-02  9.651315e+02
4119.1228 -3.673749e-02  9.585543e+02
4119.4605 -3.472468e-02  9.632001e+02
4119.7982 -2.251582e-02  9.859821e+02
4120.1359 -2.009494e-02  9.913645e+02
4120.4735 -2.491162e-02  9.838826e+02
4120.8112 -1.069291e-02  1.010255e+03
4121.1489 -1.021823e-02  1.012193e+03
4121.4866 -3.364158e-02  9.716411e+02
4121.8243 -2.742069e-02  9.838081e+02
4122.1620 -3.060733e-02  9.792520e+02
4122.4997 -2.694645e-02  9.868775e+02
4122.8374 -1.179691e-02  1.014938e+03
4123.1751 -2.233983e-02  9.973165e+02
4123.5127  1.261322e-02  1.060602e+03
4123.8504  5.218538e-02  1.132107e+03
4124.1881  3.634562e-02  1.105082e+03
4124.5258  3.061401e-02  1.096038e+03
4124.8635  2.542455e-02  1.087963e+03
4125.2012  1.450628e-02  1.069705e+03
4125.5389  1.067940e-02  1.064063e+03
4125.8766  2.078019e-02  1.083193e+03
4126.2143  4.089112e-02  1.120127e+03
4126.5520  3.062301e-02  1.103046e+03
4126.8896  1.148621e-02  1.070200e+03
4127.2273 -3.166943e-03  1.045332e+03
4127.5650 -3.571985e-02  9.886385e+02
4127.9027 -3.273901e-02  9.951368e+02
4128.2404 -2.588866e-02  1.008521e+03
4128.5781 -2.976778e-02  1.002830e+03
4128.9158 -2.661327e-02  1.009652e+03
4129.2535 -1.436844e-02  1.032642e+03
4129.5912  1.194381e-02  1.080652e+03
4129.9288  4.625019e-02  1.142882e+03
4130.2665  4.837413e-02  1.147890e+03
4130.6042  1.677709e-02  1.092939e+03
4130.9419 -2.492038e-02  1.020032e+03
4131.2796 -3.683331e-02  1.000092e+03
4131.6173 -2.153635e-02  1.028542e+03
4131.9550 -3.474350e-04  1.067473e+03
4132.2927  2.784884e-02  1.118869e+03
4132.6304  4.666651e-02  1.153592e+03
4132.9681  7.149030e-02  1.199000e+03
4133.3057  6.104369e-02  1.181693e+03
4133.6434  2.785837e-02  1.123957e+03
4133.9811  1.104049e-02  1.095329e+03
4134.3188  2.654550e-02  1.124182e+03
4134.6565  5.662747e-02  1.178960e+03
4134.9942  5.408330e-02  1.175725e+03
4135.3319  4.639935e-02  1.163355e+03
4135.6696  3.801267e-02  1.149739e+03
4136.0073  3.933579e-02  1.153393e+03
4136.3450  5.099776e-02  1.175435e+03
4136.6826  2.660780e-02  1.133373e+03
4137.0203  1.077342e-02  1.106528e+03
4137.3580  2.308643e-02  1.129739e+03
4137.6957  3.926837e-02  1.159832e+03
4138.0334  6.833746e-02  1.212845e+03
4138.3711  7.007472e-02  1.217260e+03
4138.7088  3.984156e-02  1.164828e+03
4139.0465  1.396308e-02  1.120142e+03
4139.3842  2.346074e-02  1.138366e+03
4139.7218  3.290828e-02  1.156504e+03
4140.0595  4.916023e-02  1.186745e+03
4140.3972  4.669552e-02  1.183706e+03
4140.7349  6.443810e-02  1.216603e+03
4141.0726  5.180775e-02  1.195493e+03
4141.4103  4.882034e-02  1.191533e+03
4141.7480  6.355122e-02  1.219083e+03
4142.0857  4.257074e-02  1.183133e+03
4142.4234  2.583723e-02  1.154738e+03
4142.7611  4.733762e-03  1.118575e+03
4143.0987 -3.155509e-02  1.055411e+03
4143.4364 -6.283334e-03  1.101717e+03
4143.7741  1.739272e-02  1.145188e+03
4144.1118  1.165601e-02  1.136359e+03
4144.4495  8.092430e-03  1.131397e+03
4144.7872  2.657959e-02  1.165647e+03
4145.1249  2.952042e-02  1.172255e+03
4145.4626  4.627638e-02  1.203431e+03
4145.8003  3.600898e-02  1.186556e+03
4146.1379  2.432970e-02  1.167172e+03
4146.4756  2.466036e-02  1.169146e+03
4146.8133  1.885968e-02  1.160219e+03
4147.1510  6.789229e-03  1.140144e+03
4147.4887 -9.241743e-04  1.127819e+03
4147.8264  2.417551e-03  1.135153e+03
4148.1641  4.986636e-02  1.220921e+03
4148.5018  3.998641e-02  1.204747e+03
4148.8395  1.518650e-02  1.162044e+03
4149.1772  3.607311e-02  1.200582e+03
4149.5148  4.282016e-02  1.213978e+03
4149.8525  2.690890e-02  1.187084e+03
4150.1902  1.358103e-03  1.143050e+03
4150.5279  1.264774e-02  1.164526e+03
4150.8656  9.816245e-03  1.160893e+03
4151.2033  7.714331e-03  1.158559e+03
4151.5410  1.409836e-02  1.171314e+03
4151.8787  6.242890e-03  1.158750e+03
4152.2164  9.715059e-03  1.166329e+03
4152.5540  2.282699e-02  1.191050e+03
4152.8917  4.021197e-02  1.223370e+03
4153.2294  5.418985e-02  1.249631e+03
4153.5671  4.984154e-02  1.243305e+03
4153.9048  4.512464e-02  1.236324e+03
4154.2425  4.280213e-02  1.233600e+03
4154.5802  3.567034e-02  1.222325e+03
4154.9179  6.249411e-02  1.271429e+03
4155.2556  6.946284e-02  1.285228e+03
4155.5933  3.298976e-02  1.221777e+03
4155.9309  4.490628e-02  1.244373e+03
4156.2686  5.630106e-02  1.266040e+03
4156.6063  4.395482e-02  1.245491e+03
4156.9440  6.037116e-02  1.276087e+03
4157.2817  6.470015e-02  1.285189e+03
4157.6194  2.687611e-02  1.219333e+03
4157.9571  3.091610e-02  1.227920e+03
4158.2948  5.904955e-02  1.279349e+03
4158.6325  4.972566e-02  1.264170e+03
4158.9702  2.602997e-02  1.223434e+03
4159.3078  2.679094e-02  1.226187e+03
4159.6455  1.097300e-02  1.199457e+03
4159.9832  1.969405e-02  1.216362e+03
4160.3209  2.935962e-02  1.234945e+03
4160.6586  1.474686e-02  1.210354e+03
4160.9963  2.033473e-02  1.221684e+03
4161.3340  3.516169e-02  1.249441e+03
4161.6717  2.198952e-02  1.227408e+03
4162.0094  1.725740e-02  1.220382e+03
4162.3470  9.831366e-03  1.208563e+03
4162.6847 -1.040746e-02  1.173960e+03
4163.0224  4.869652e-03  1.202509e+03
4163.3601  4.535162e-02  1.275876e+03
4163.6978  4.824279e-02  1.282396e+03
4164.0355  4.397476e-02  1.276184e+03
4164.3732  3.684535e-02  1.264882e+03
4164.7109  2.069185e-02  1.237531e+03
4165.0486  4.296239e-02  1.278504e+03
4165.3863  6.614832e-02  1.321102e+03
4165.7239  6.715637e-02  1.324261e+03
4166.0616  8.277771e-02  1.353403e+03
4166.3993  7.622255e-02  1.343109e+03
4166.7370  4.798486e-02  1.294255e+03
4167.0747  7.463280e-03  1.223556e+03
4167.4124 -8.269204e-03  1.196934e+03
4167.7501  2.270186e-02  1.253358e+03
4168.0878  3.927395e-02  1.284175e+03
4168.4255  3.402160e-02  1.276181e+03
4168.7631  3.159316e-02  1.273205e+03
4169.1008  1.293975e-02  1.241375e+03
4169.4385  4.000017e-04  1.220413e+03
4169.7762  1.950218e-02  1.255714e+03
4170.1139  2.623374e-02  1.269014e+03
4170.4516  1.308670e-02  1.246962e+03
4170.7893  4.890502e-04  1.225885e+03
4171.1270 -1.234449e-02  1.204384e+03
4171.4647  6.297334e-03  1.238850e+03
4171.8024  2.249355e-02  1.268963e+03
4172.1400  1.298639e-03  1.232584e+03
4172.4777 -1.734486e-02  1.200738e+03
4172.8154 -1.248364e-02  1.210684e+03
4173.1531 -1.844822e-02  1.201376e+03
4173.4908 -4.554290e-02  1.154491e+03
4173.8285 -6.240274e-02  1.125802e+03
4174.1662 -3.224335e-02  1.180718e+03
4174.5039  2.933147e-03  1.244552e+03
4174.8416 -4.860522e-03  1.231973e+03
4175.1792 -1.446490e-03  1.239318e+03
4175.5169  7.647055e-03  1.256759e+03
4175.8546  7.765737e-03  1.258237e+03
4176.1923  1.359399e-02  1.269863e+03
4176.5300  1.464486e-02  1.272990e+03
4176.8677  1.435343e-02  1.273725e+03
4177.2054  1.339903e-03  1.251833e+03
4177.5431 -1.976024e-02  1.215557e+03
4177.8808  1.648247e-02  1.281245e+03
4178.2185  2.613848e-02  1.299651e+03
4178.5561 -3.056753e-02  1.200047e+03
4178.8938 -6.585393e-02  1.138526e+03
4179.2315 -4.985679e-02  1.168194e+03
4179.5692 -2.227921e-02  1.218450e+03
4179.9069 -2.047856e-02  1.222864e+03
4180.2446 -6.848693e-02  1.138702e+03
4180.5823 -9.193916e-02  1.098201e+03
4180.9200 -3.500367e-02  1.200642e+03
4181.2577  2.363545e-02  1.306106e+03
4181.5954  2.429716e-02  1.308470e+03
4181.9330  2.300864e-02  1.307361e+03
4182.2707  3.510990e-02  1.330057e+03
4182.6084  2.593370e-02  1.314911e+03
4182.9461  1.961344e-02  1.304839e+03
4183.2838  1.755286e-02  1.302336e+03
4183.6215  1.599364e-02  1.300720e+03
4183.9592  1.234271e-02  1.295378e+03
4184.2969  1.955912e-03  1.278054e+03
4184.6346 -1.786013e-02  1.243957e+03
4184.9722 -9.100051e-03  1.260668e+03
4185.3099  1.014792e-02  1.296024e+03
4185.6476 -8.949024e-03  1.263189e+03
4185.9853 -1.690684e-02  1.250156e+03
4186.3230 -1.142422e-02  1.261018e+03
4186.6607 -2.417057e-02  1.239459e+03
4186.9984 -2.536048e-02  1.238444e+03
4187.3361  2.400061e-03  1.288903e+03
4187.6738  2.210292e-02  1.325028e+03
4188.0115  3.752567e-02  1.353537e+03
4188.3491  2.504033e-02  1.332413e+03
4188.6868  3.020662e-02  1.342672e+03
4189.0245  4.444968e-02  1.369065e+03
4189.3622  4.137296e-02  1.364654e+03
4189.6999  3.861095e-02  1.360797e+03
4190.0376  4.614103e-02  1.375236e+03
4190.3753  3.669496e-02  1.359481e+03
4190.7130  3.612019e-02  1.359496e+03
4191.0507  2.822573e-02  1.346488e+03
4191.3883  3.134601e-02  1.353061e+03
4191.7260  2.877549e-02  1.349508e+03
4192.0637  1.231266e-03  1.301541e+03
4192.4014 -4.039925e-03  1.293174e+03
4192.7391  1.997802e-02  1.336883e+03
4193.0768  5.173379e-02  1.394345e+03
4193.4145  4.861192e-02  1.389781e+03
4193.7522  3.485955e-03  1.310519e+03
4194.0899 -1.050365e-02  1.286618e+03
4194.4276  6.736540e-03  1.318244e+03
4194.7652  3.563317e-02  1.370591e+03
4195.1029  3.836486e-02  1.376405e+03
4195.4406  1.840386e-02  1.341860e+03
4195.7783  2.378819e-02  1.352378e+03
4196.1160  3.356802e-02  1.370706e+03
4196.4537  2.747795e-02  1.360808e+03
4196.7914  3.105419e-02  1.368092e+03
4197.1291  4.296059e-02  1.390183e+03
4197.4668  2.543893e-02  1.359938e+03
4197.8044 -8.055036e-03  1.301284e+03
4198.1421 -1.410773e-02  1.291421e+03
4198.4798  1.052001e-02  1.336107e+03
4198.8175  2.316280e-02  1.359475e+03
4199.1552  2.303430e-02  1.360127e+03
4199.4929 -5.935148e-03  1.309487e+03
4199.8306 -2.173789e-02  1.282254e+03
4200.1683 -8.313219e-04  1.320291e+03
4200.5060  1.565004e-02  1.350453e+03
4200.8437  1.121126e-02  1.343408e+03
4201.1813 -1.142652e-02  1.303995e+03
4201.5190 -1.037014e-02  1.306709e+03
4201.8567  3.733502e-03  1.332617e+03
4202.1944  5.784539e-03  1.337087e+03
4202.5321 -9.420062e-03  1.310866e+03
4202.8698  8.962682e-03  1.344364e+03
4203.2075  7.994513e-03  1.343445e+03
4203.5452  5.904268e-03  1.340525e+03
4203.8829  1.947272e-02  1.365443e+03
4204.2205  2.585631e-03  1.336198e+03
4204.5582  1.549267e-02  1.359927e+03
4204.8959 -3.526768e-03  1.326877e+03
4205.2336 -3.031993e-02  1.279998e+03
4205.5713 -1.994737e-02  1.299201e+03
4205.9090 -2.395329e-02  1.292830e+03
4206.2467 -2.516929e-02  1.291413e+03
4206.5844  3.232602e-03  1.342657e+03
4206.9221  5.659491e-03  1.347705e+03
4207.2598 -3.493912e-02  1.276239e+03
4207.5974 -5.416634e-02  1.242769e+03
4207.9351 -5.405237e-02  1.243685e+03
4208.2728 -5.395950e-02  1.244558e+03
4208.6105 -5.360867e-02  1.245883e+03
4208.9482 -5.325440e-02  1.247208e+03
4209.2859 -5.289660e-02  1.248533e+03
4209.6236 -5.253501e-02  1.249858e+03
4209.9613 -5.217020e-02  1.251183e+03
4210.2990 -5.180176e-02  1.252509e+03
4210.6367 -5.142983e-02  1.253834e+03
4210.9743 -5.105423e-02  1.255159e+03
4211.3120 -5.067524e-02  1.256485e+03
4211.6497 -5.029280e-02  1.257810e+03
4211.9874 -4.990699e-02  1.259135e+03
4212.3251 -4.951755e-02  1.260461e+03
4212.6628 -4.912456e-02  1.261787e+03
4213.0005 -4.872838e-02  1.263113e+03
4213.3382 -4.832868e-02  1.264438e+03
4213.6759 -4.792567e-02  1.265764e+03
4214.0135 -4.751910e-02  1.267090e+03
4214.3512 -4.710932e-02  1.268416e+03
4214.6889 -4.669615e-02  1.269742e+03
4215.0266 -4.627959e-02  1.271068e+03
4215.3643 -4.585959e-02  1.272394e+03
4215.7020 -4.543645e-02  1.273720e+03
4216.0397 -4.500977e-02  1.275047e+03
4216.3774 -4.458018e-02  1.276373e+03
4216.7151 -4.414695e-02  1.277699e+03
4217.0528 -4.371064e-02  1.279026e+03
4217.3904 -4.327106e-02  1.280352e+03
4217.7281 -4.282830e-02  1.281679e+03
4218.0658 -4.238231e-02  1.283006e+03
4218.4035 -4.193319e-02  1.284332e+03
4218.7412 -4.148079e-02  1.285659e+03
4219.0789 -4.102536e-02  1.286986e+03
4219.4166 -4.056699e-02  1.288312e+03
4219.7543 -4.010541e-02  1.289639e+03
4220.0920 -3.964051e-02  1.290967e+03
4220.4296 -3.917265e-02  1.292294e+03
4220.7673 -3.870186e-02  1.293621e+03
4221.1050 -3.822795e-02  1.294948e+03
4221.4427 -3.775115e-02  1.296275e+03
4221.7804 -3.727134e-02  1.297602e+03
4222.1181 -3.678875e-02  1.298929e+03
4222.4558 -3.630305e-02  1.300257e+03
4222.7935 -3.581436e-02  1.301584e+03
4223.1312 -3.532287e-02  1.302912e+03
4223.4689 -3.482850e-02  1.304240e+03
4223.8065 -3.433139e-02  1.305567e+03
4224.1442 -3.383129e-02  1.306895e+03
4224.4819 -3.332859e-02  1.308223e+03
4224.8196 -3.282300e-02  1.309551e+03
4225.1573 -3.231479e-02  1.310878e+03
4225.4950 -3.180369e-02  1.312206e+03
4225.8327 -3.128994e-02  1.313535e+03
4226.1704 -3.077355e-02  1.314863e+03
4226.5081 -3.025456e-02  1.316191e+03
4226.8457 -2.973306e-02  1.317519e+03
4227.1834 -2.920887e-02  1.318847e+03
4227.5211 -2.868195e-02  1.320176e+03
4227.8588 -2.822784e-02  1.321370e+03
4228.1965 -2.937617e-02  1.319711e+03
4228.5342 -3.374714e-02  1.312317e+03
4228.8719 -3.226820e-02  1.315321e+03
4229.2096 -2.159086e-02  1.334678e+03
4229.5473 -3.941549e-02  1.303347e+03
4229.8850  1.074460e-02  1.392904e+03
4230.2226 -7.949489e-03  1.360020e+03
4230.5603  2.681690e-02  1.422195e+03
4230.8980 -3.243916e-03  1.369090e+03
4231.2357 -6.017020e-03  1.364504e+03
4231.5734 -1.213198e-02  1.353972e+03
4231.9111  1.683403e-02  1.405817e+03
4232.2488  1.672340e-03  1.379191e+03
4232.5865 -4.928700e-02  1.288905e+03
4232.9242 -4.242096e-02  1.301440e+03
4233.2619 -8.148108e-02  1.232306e+03
4233.5995 -5.984366e-02  1.271101e+03
4233.9372 -6.680236e-02  1.259043e+03
4234.2749 -4.708815e-02  1.294411e+03
4234.6126  1.975759e-02  1.413586e+03
4234.9503 -6.989365e-02  1.254473e+03
4235.2880  1.299097e-02  1.402161e+03
4235.6257  5.245491e-02  1.472635e+03
4235.9634 -1.201344e-03  1.377519e+03
4236.3011  1.303002e-02  1.403118e+03
4236.6387 -1.928408e-02  1.345947e+03
4236.9764  8.834210e-03  1.396233e+03
4237.3141 -1.328842e-02  1.357178e+03
4237.6518 -4.189390e-02  1.306592e+03
4237.9895  5.399276e-04  1.382326e+03
4238.3272 -2.835536e-02  1.331220e+03
4238.6649 -3.878220e-02  1.312951e+03
4239.0026 -4.762169e-02  1.297502e+03
4239.3403 -3.739599e-02  1.315952e+03
4239.6780 -3.174312e-02  1.326269e+03
4240.0156  1.906749e-02  1.416883e+03
4240.3533 -2.259896e-02  1.343050e+03
4240.6910  6.955277e-03  1.395861e+03
4241.0287  6.309526e-04  1.384870e+03
4241.3664 -6.887598e-03  1.371753e+03
4241.7041 -4.154671e-03  1.376863e+03
4242.0418 -2.739890e-02  1.335778e+03
4242.3795 -4.571015e-02  1.303463e+03
4242.7172  3.741020e-03  1.391641e+03
4243.0548  1.103832e-02  1.404859e+03
4243.3925 -4.640283e-02  1.302957e+03
4243.7302 -2.309423e-02  1.344643e+03
4244.0679 -1.600631e-03  1.383099e+03
4244.4056 -3.348312e-02  1.326640e+03
4244.7433 -5.159011e-02  1.294675e+03
4245.0810  3.857583e-03  1.393504e+03
4245.4187  8.725056e-03  1.402390e+03
4245.7564 -7.876131e-03  1.373098e+03
4246.0941 -2.942802e-02  1.335001e+03
4246.4317  1.648667e-02  1.416872e+03
4246.7694 -3.937098e-02  1.317770e+03
4247.1071  1.070790e-02  1.407044e+03
4247.4448 -4.297615e-02  1.311804e+03
4247.7825  2.666169e-02  1.435855e+03
4248.1202 -3.534404e-03  1.382380e+03
4248.4579  2.603016e-03  1.393512e+03
4248.7956 -4.157802e-02  1.315167e+03
4249.1333 -1.973484e-02  1.354225e+03
4249.4709 -1.417538e-02  1.364327e+03
4249.8086 -1.627954e-02  1.360801e+03
4250.1463 -2.156554e-02  1.351615e+03
4250.4840  1.734491e-02  1.421020e+03
4250.8217 -2.841419e-02  1.339864e+03
4251.1594 -4.082203e-02  1.318013e+03
4251.4971 -4.045245e-02  1.318882e+03
4251.8348 -3.067279e-02  1.336484e+03
4252.1725 -5.978823e-02  1.284922e+03
4252.5102 -7.106507e-02  1.265081e+03
4252.8478 -1.678610e-02  1.361811e+03
4253.1855 -1.384037e-02  1.367260e+03
4253.5232 -8.727093e-03  1.376563e+03
4253.8609 -2.108338e-02  1.354802e+03
4254.1986 -7.174140e-03  1.379746e+03
4254.5363 -3.419235e-02  1.331912e+03
4254.8740  1.343052e-02  1.416807e+03
4255.2117 -2.605199e-02  1.346809e+03
4255.5494  1.347953e-02  1.417316e+03
4255.8871  5.911039e-02  1.498669e+03
4256.2247  1.082108e-02  1.413012e+03
4256.5624  2.942145e-02  1.446300e+03
4256.9001  2.336782e-02  1.435748e+03
4257.2378 -2.260461e-02  1.354212e+03
4257.5755  2.546803e-02  1.439909e+03
4257.9132  3.282152e-02  1.453200e+03
4258.2509  4.982793e-03  1.403912e+03
4258.5886  1.773695e-02  1.426808e+03
4258.9263 -4.452390e-02  1.316312e+03
4259.2639  1.547864e-02  1.423226e+03
4259.6016 -1.221261e-02  1.374204e+03
4259.9393 -1.818311e-02  1.363807e+03
4260.2770 -8.081523e-03  1.381990e+03
4260.6147  1.479771e-02  1.422896e+03
4260.9524 -1.794545e-03  1.393614e+03
4261.2901  1.839229e-02  1.429735e+03
4261.6278 -1.388883e-03  1.394785e+03
4261.9655  1.382948e-02  1.422073e+03
4262.3032  1.592180e-02  1.426022e+03
4262.6408  9.305324e-03  1.414486e+03
4262.9785  4.880590e-02  1.484957e+03
4263.3162  5.458396e-02  1.495464e+03
4263.6539  4.499272e-02  1.478643e+03
4263.9916  2.203000e-02  1.438046e+03
4264.3293  3.439056e-02  1.460263e+03
4264.6670  6.000179e-02  1.506044e+03
4265.0047  6.894787e-02  1.522193e+03
4265.3424  3.704308e-02  1.465703e+03
4265.6800  1.534392e-02  1.427362e+03
4266.0177  1.030143e-02  1.418642e+03
4266.3554  6.369855e-02  1.513842e+03
4266.6931  4.837079e-02  1.486836e+03
4267.0308  4.468510e-02  1.480535e+03
4267.3685  5.670114e-02  1.502157e+03
4267.7062  5.069633e-03  1.410603e+03
4268.0439  2.474290e-02  1.445845e+03
4268.3816 -1.889924e-02  1.368502e+03
4268.7193  3.239882e-02  1.459985e+03
4269.0569  2.937746e-02  1.454879e+03
4269.3946 -3.242994e-02  1.345241e+03
4269.7323 -2.453143e-02  1.359558e+03
4270.0700  6.616285e-03  1.415219e+03
4270.4077  3.018581e-02  1.457407e+03
4270.7454  1.362373e-02  1.428235e+03
4271.0831  3.169240e-02  1.460646e+03
4271.4208  1.973899e-02  1.439675e+03
4271.7585  2.025982e-02  1.440889e+03
4272.0961  5.602889e-02  1.504784e+03
4272.4338  4.093552e-02  1.478237e+03
4272.7715 -4.519630e-03  1.397704e+03
4273.1092 -1.371564e-02  1.381651e+03
4273.4469  3.184232e-02  1.462964e+03
4273.7846  4.641392e-02  1.489180e+03
4274.1223  6.490923e-02  1.522376e+03
4274.4600  2.680424e-02  1.454928e+03
4274.7977 -6.070912e-02  1.299625e+03
4275.1354  2.060998e-03  1.411561e+03
4275.4730  5.768072e-02  1.510785e+03
4275.8107  1.947516e-02  1.443171e+03
4276.1484 -1.247844e-02  1.386678e+03
4276.4861  1.618063e-02  1.437970e+03
4276.8238  8.239919e-02  1.556054e+03
4277.1615  5.053663e-02  1.499733e+03
4277.4992  1.331326e-02  1.433883e+03
4277.8369  5.407526e-02  1.506710e+03
4278.1746  8.614274e-02  1.564080e+03
4278.5122  4.535636e-02  1.491905e+03
4278.8499  3.474470e-02  1.473390e+03
4279.1876  2.234985e-02  1.451708e+03
4279.5253  4.414380e-02  1.490824e+03
4279.8630  8.131644e-02  1.557290e+03
4280.2007  1.492315e-02  1.439599e+03
4280.5384  1.051359e-02  1.432131e+03
4280.8761  3.012819e-02  1.467386e+03
4281.2138  6.226263e-02  1.524909e+03
4281.5515  3.247393e-02  1.472323e+03
4281.8891 -1.182652e-02  1.393936e+03
4282.2268  2.885695e-02  1.466673e+03
4282.5645  2.288020e-02  1.456441e+03
4282.9022  3.581001e-02  1.479833e+03
4283.2399  2.254516e-02  1.456650e+03
4283.5776  7.670164e-03  1.430608e+03
4283.9153  8.643828e-03  1.432752e+03
4284.2530 -2.491396e-02  1.373496e+03
4284.5907  1.980805e-03  1.421741e+03
4284.9284 -2.171207e-03  1.414783e+03
4285.2660  1.005282e-03  1.420860e+03
4285.6037  1.178492e-02  1.440462e+03
4285.9414 -2.156752e-02  1.381592e+03
4286.2791  5.580422e-02  1.519617e+03
4286.6168  3.721762e-02  1.487012e+03
4286.9545  4.037306e-02  1.493073e+03
4287.2922  5.009390e-02  1.510813e+03
4287.6299  3.537679e-02  1.485102e+03
4287.9676  2.391156e-02  1.465178e+03
4288.3052  5.237431e-02  1.516258e+03
4288.6429  2.920161e-02  1.475524e+03
4288.9806  5.064194e-02  1.514126e+03
4289.3183  1.272232e-02  1.447178e+03
4289.6560  3.089619e-02  1.479980e+03
4289.9937  3.014167e-02  1.479128e+03
4290.3314  4.243815e-02  1.501488e+03
4290.6691  3.889243e-02  1.495682e+03
4291.0068 -6.705990e-03  1.415102e+03
4291.3445  3.018931e-02  1.481217e+03
4291.6821  3.361942e-02  1.487829e+03
4292.0198 -2.552357e-02  1.383177e+03
4292.3575 -3.026482e-02  1.375268e+03
4292.6952  2.812216e-02  1.479618e+03
4293.0329  6.724780e-02  1.549722e+03
4293.3706  6.801181e-02  1.551616e+03
4293.7083  6.434160e-02  1.545630e+03
4294.0460  3.305932e-02  1.490548e+03
4294.3837  2.659793e-02  1.479608e+03
4294.7213  4.704624e-02  1.516523e+03
4295.0590  5.659400e-02  1.534059e+03
4295.3967  8.413435e-02  1.583595e+03
4295.7344  6.593503e-02  1.551801e+03
4296.0721  7.872761e-02  1.575122e+03
4296.4098  8.686624e-02  1.590171e+03
4296.7475  1.164533e-01  1.643365e+03
4297.0852  8.459447e-02  1.587300e+03
4297.4229  8.363499e-02  1.586186e+03
4297.7606  7.606443e-02  1.573320e+03
4298.0982  5.317779e-02  1.533224e+03
4298.4359  3.292092e-02  1.497809e+03
4298.7736  5.845915e-02  1.543832e+03
4299.1113  1.351574e-02  1.464528e+03
4299.4490  4.801220e-02  1.526490e+03
4299.7867  1.934961e-02  1.476147e+03
4300.1244  4.054608e-02  1.514468e+03
4300.4621 -3.757280e-02  1.376191e+03
4300.7998  4.082496e-02  1.516237e+03
4301.1374 -3.158228e-02  1.388126e+03
4301.4751  1.706931e-02  1.475287e+03
4301.8128  2.667752e-02  1.493026e+03
4302.1505  1.377526e-02  1.470741e+03
4302.4882  8.999149e-04  1.448509e+03
4302.8259  9.055340e-03  1.463679e+03
4303.1636 -3.093772e-02  1.393235e+03
4303.5013 -9.785378e-03  1.431526e+03
4303.8390  2.561800e-02  1.495162e+03
4304.1767  3.319681e-02  1.509325e+03
4304.5143  1.530973e-02  1.478210e+03
4304.8520  6.833061e-02  1.573188e+03
4305.1897  8.549017e-02  1.604402e+03
4305.5274  7.728882e-02  1.590524e+03
4305.8651  3.757390e-02  1.520613e+03
4306.2028  3.857568e-02  1.523109e+03
4306.5405  3.139843e-02  1.511066e+03
4306.8782  2.492562e-02  1.500281e+03
4307.2159  3.539125e-02  1.519620e+03
4307.5536  1.585690e-02  1.485617e+03
4307.8912  3.498771e-03  1.464380e+03
4308.2289  4.170903e-02  1.533069e+03
4308.5666  2.830148e-02  1.509975e+03
4308.9043  2.580675e-02  1.506292e+03
4309.2420  1.568634e-02  1.489052e+03
4309.5797  4.690806e-02  1.545333e+03
4309.9174  2.200107e-02  1.501809e+03
4310.2551  4.475609e-02  1.543043e+03
4310.5928  1.400668e-02  1.489139e+03
4310.9304  5.784980e-02  1.567881e+03
4311.2681  7.830305e-02  1.605036e+03
4311.6058  2.544677e-02  1.511835e+03
4311.9435  5.070908e-02  1.557550e+03
4312.2812  9.850385e-02  1.643337e+03
4312.6189  1.297398e-03  1.471286e+03
4312.9566  1.460116e-02  1.495750e+03
4313.2943  1.587091e-02  1.498819e+03
4313.6320  6.236033e-02  1.582303e+03
4313.9697  4.400903e-02  1.550491e+03
4314.3073  2.702781e-02  1.521119e+03
4314.6450  9.809483e-03  1.491330e+03
4314.9827 -3.476571e-02  1.412900e+03
4315.3204  2.872575e-03  1.480666e+03
4315.6581  4.807096e-02  1.561880e+03
4315.9958  1.513130e-02  1.504153e+03
4316.3335 -2.147298e-02  1.439913e+03
4316.6712  6.259885e-02  1.590265e+03
4317.0089  2.741368e-02  1.528558e+03
4317.3465  6.129961e-02  1.589677e+03
4317.6842  7.660925e-02  1.617769e+03
4318.0219  3.546784e-02  1.545482e+03
4318.3596  3.480564e-03  1.489478e+03
4318.6973  6.043113e-03  1.494915e+03
4319.0350  5.048387e-02  1.574823e+03
4319.3727  8.276699e-02  1.633118e+03
4319.7104  5.616370e-02  1.586704e+03
4320.0481  2.236343e-02  1.527496e+03
4320.3858 -1.244410e-02  1.466501e+03
4320.7234  3.539919e-02  1.552480e+03
4321.0611 -3.188299e-03  1.484772e+03
4321.3988 -2.886628e-02  1.440023e+03
4321.7365 -2.722377e-02  1.443860e+03
4322.0742  7.332977e-03  1.506229e+03
4322.4119  3.135147e-02  1.549862e+03
4322.7496  3.740293e-02  1.561551e+03
4323.0873  1.205936e-02  1.517416e+03
4323.4250 -2.167827e-02  1.458358e+03
4323.7626 -1.957946e-03  1.494364e+03
4324.1003 -5.576768e-02  1.399621e+03
4324.4380 -4.736441e-02  1.415510e+03
4324.7757 -5.444365e-02  1.403872e+03
4325.1134 -2.748332e-02  1.452766e+03
4325.4511 -3.765536e-02  1.435635e+03
4325.7888 -5.392363e-02  1.407667e+03
4326.1265 -1.194433e-01  1.292124e+03
4326.4642 -1.094747e-01  1.310818e+03
4326.8019 -6.082289e-02  1.398302e+03
4327.1395 -6.603810e-02  1.390003e+03
4327.4772 -9.283863e-02  1.343324e+03
4327.8149 -9.577381e-02  1.339086e+03
4328.1526 -9.052454e-02  1.349405e+03
4328.4903 -5.037029e-02  1.421795e+03
4328.8280 -9.697163e-02  1.339920e+03
4329.1657 -9.346441e-02  1.347151e+03
4329.5034 -9.857920e-02  1.339053e+03
4329.8411 -1.183499e-01  1.304898e+03
4330.1788 -1.275022e-01  1.289627e+03
4330.5164 -1.252303e-01  1.294675e+03
4330.8541 -1.216294e-01  1.302088e+03
4331.1918 -1.458315e-01  1.260065e+03
4331.5295 -1.270565e-01  1.294467e+03
4331.8672 -1.174725e-01  1.312529e+03
4332.2049 -1.641787e-01  1.230498e+03
4332.5426 -1.634121e-01  1.232886e+03
4332.8803 -1.925832e-01  1.182042e+03
4333.2180 -2.453007e-01  1.089330e+03
4333.5556 -2.387025e-01  1.102097e+03
4333.8933 -2.226898e-01  1.131607e+03
4334.2310 -3.069489e-01  9.828164e+02
4334.5687 -2.538046e-01  1.078360e+03
4334.9064 -2.675451e-01  1.054971e+03
4335.2441 -3.173368e-01  9.674785e+02
4335.5818 -3.489816e-01  9.122573e+02
4335.9195 -3.748212e-01  8.673617e+02
4336.2572 -3.450511e-01  9.213540e+02
4336.5949 -3.920721e-01  8.387985e+02
4336.9325 -3.860051e-01  8.506467e+02
4337.2702 -4.057511e-01  8.165967e+02
4337.6079 -4.065290e-01  8.162781e+02
4337.9456 -4.236079e-01  7.869753e+02
4338.2833 -3.929566e-01  8.425492e+02
4338.6210 -4.190828e-01  7.971630e+02
4338.9587 -4.974770e-01  6.588357e+02
4339.2964 -5.101517e-01  6.373734e+02
4339.6341 -4.845027e-01  6.840610e+02
4339.9717 -5.283681e-01  6.071396e+02
4340.3094 -5.444167e-01  5.796844e+02
4340.6471 -5.284572e-01  6.091482e+02
4340.9848 -5.934746e-01  4.946205e+02
4341.3225 -5.504172e-01  5.722738e+02
4341.6602 -5.384520e-01  5.946410e+02
4341.9979 -5.246001e-01  6.203650e+02
4342.3356 -5.299574e-01  6.119330e+02
4342.6733 -5.262477e-01  6.196256e+02
4343.0110 -5.170995e-01  6.369908e+02
4343.3486 -5.063467e-01  6.572112e+02
4343.6863 -4.879591e-01  6.910095e+02
4344.0240 -3.995192e-01  8.493772e+02
4344.3617 -4.306693e-01  7.950905e+02
4344.6994 -4.248974e-01  8.064603e+02
4345.0371 -3.925900e-01  8.650175e+02
4345.3748 -3.962562e-01  8.596077e+02
4345.7125 -3.678718e-01  9.111919e+02
4346.0502 -3.159079e-01  1.004707e+03
4346.3878 -3.233489e-01  9.925890e+02
4346.7255 -3.160346e-01  1.006710e+03
4347.0632 -3.094809e-01  1.019481e+03
4347.4009 -2.942585e-01  1.047667e+03
4347.7386 -2.647107e-01  1.101328e+03
4348.0763 -2.318684e-01  1.160849e+03
4348.4140 -2.514976e-01  1.127066e+03
4348.7517 -2.518567e-01  1.127550e+03
4349.0894 -2.667808e-01  1.102135e+03
4349.4271 -1.803270e-01  1.256993e+03
4349.7647 -1.899687e-01  1.240974e+03
4350.1024 -1.846663e-01  1.251530e+03
4350.4401 -1.648940e-01  1.287817e+03
4350.7778 -1.736535e-01  1.273369e+03
4351.1155 -1.634066e-01  1.292720e+03
4351.4532 -1.309697e-01  1.351530e+03
4351.7909 -1.436328e-01  1.330144e+03
4352.1286 -1.142376e-01  1.383547e+03
4352.4663 -1.486724e-01  1.323448e+03
4352.8039 -1.434326e-01  1.333899e+03
4353.1416 -1.205374e-01  1.375746e+03
4353.4793 -1.127403e-01  1.390745e+03
4353.8170 -1.167222e-01  1.384800e+03
4354.1547 -1.401591e-01  1.344261e+03
4354.4924 -1.224440e-01  1.376899e+03
4354.8301 -5.095515e-02  1.505158e+03
4355.1678 -1.005962e-01  1.418023e+03
4355.5055 -1.045095e-01  1.412203e+03
4355.8432 -9.108083e-02  1.437220e+03
4356.1808 -6.154202e-02  1.490885e+03
4356.5185 -2.020042e-02  1.565539e+03
4356.8562 -4.486376e-02  1.522822e+03
4357.1939 -9.904798e-02  1.427611e+03
4357.5316 -6.364095e-02  1.491712e+03
4357.8693 -3.959224e-02  1.535615e+03
4358.2070 -6.185091e-02  1.497175e+03
4358.5447 -4.476998e-02  1.528689e+03
4358.8824 -5.382520e-03  1.599869e+03
4359.2201 -3.134558e-02  1.554842e+03
4359.5577 -1.156209e-02  1.591162e+03
4359.8954 -6.393443e-02  1.499173e+03
4360.2331 -6.254252e-02  1.502789e+03
4360.5708 -6.502630e-02  1.499513e+03
4360.9085 -1.915139e-02  1.582229e+03
4361.2462 -6.364435e-03  1.606107e+03
4361.5839  5.412734e-03  1.628189e+03
4361.9216  4.143619e-02  1.693386e+03
4362.2593  3.136262e-02  1.676613e+03
4362.5969  1.450844e-02  1.647782e+03
4362.9346  5.973068e-02  1.729336e+03
4363.2723 -2.799847e-03  1.619282e+03
4363.6100  1.548629e-02  1.652938e+03
4363.9477  9.855152e-03  1.644062e+03
4364.2854 -1.533423e-02  1.600408e+03
4364.6231 -3.813174e-02  1.561006e+03
4364.9608 -6.627452e-02  1.512099e+03
4365.2985 -5.549921e-02  1.532396e+03
4365.6362  9.239665e-04  1.633864e+03
4365.9738  8.178801e-03  1.647900e+03
4366.3115 -1.038788e-03  1.632644e+03
4366.6492  1.384200e-02  1.660239e+03
4366.9869  1.783113e-02  1.668466e+03
4367.3246  2.070699e-03  1.641573e+03
4367.6623 -6.461123e-03  1.627534e+03
4368.0000 -4.499944e-02  1.560136e+03
4368.3377 -2.182586e-02  1.602474e+03
4368.6754 -2.575157e-02  1.596623e+03
4369.0130 -2.100179e-02  1.606198e+03
4369.3507 -2.649226e-03  1.639960e+03
4369.6884 -2.997574e-02  1.592495e+03
4370.0261  2.271625e-02  1.687319e+03
4370.3638  4.405849e-02  1.726395e+03
4370.7015  6.746746e-03  1.661171e+03
4371.0392 -1.239295e-03  1.648094e+03
4371.3769  1.425528e-02  1.676769e+03
4371.7146  3.696409e-03  1.659115e+03
4372.0523 -2.585992e-02  1.607678e+03
4372.3899  4.385136e-03  1.662579e+03
4372.7276 -9.039715e-03  1.639825e+03
4373.0653 -9.315671e-03  1.640452e+03
4373.4030 -2.788731e-02  1.608543e+03
4373.7407 -2.787160e-02  1.609686e+03
4374.0784 -2.200149e-02  1.621238e+03
4374.4161 -9.428681e-03  1.644708e+03
4374.7538  1.269361e-02  1.685157e+03
4375.0915 -4.794708e-03  1.655169e+03
4375.4291 -4.173219e-02  1.590596e+03
4375.7668 -4.441672e-03  1.658014e+03
4376.1045  4.235834e-02  1.742340e+03
4376.4422  1.050636e-02  1.686805e+03
4376.7799 -7.334510e-03  1.656184e+03
4377.1176 -5.425574e-03  1.660681e+03
4377.4553  2.983666e-02  1.724485e+03
4377.7930  6.206544e-02  1.782894e+03
4378.1307  1.438623e-02  1.699209e+03
4378.4684 -1.063534e-02  1.655812e+03
4378.8060  4.598331e-02  1.757587e+03
4379.1437 -1.268508e-02  1.654356e+03
4379.4814  4.913915e-02  1.765384e+03
4379.8191  1.176156e-03  1.681187e+03
4380.1568  1.247324e-02  1.702365e+03
4380.4945 -1.157275e-02  1.660693e+03
4380.8322 -1.969581e-02  1.647335e+03
4381.1699  4.637793e-02  1.765912e+03
4381.5076  1.950404e-03  1.687994e+03
4381.8453  4.801883e-02  1.770995e+03
4382.1829  4.307837e-02  1.763289e+03
4382.5206  3.561058e-02  1.751088e+03
4382.8583  8.422128e-03  1.703818e+03
4383.1960  1.391239e-02  1.714655e+03
4383.5337  1.193565e-02  1.712213e+03
4383.8714 -3.347341e-02  1.632538e+03
4384.2091 -2.954576e-02  1.640592e+03
4384.5468 -3.341145e-02  1.634786e+03
4384.8845  8.209055e-03  1.709862e+03
4385.2221 -2.033644e-02  1.660167e+03
4385.5598  2.407799e-02  1.740208e+03
4385.8975 -5.473360e-02  1.601126e+03
4386.2352 -4.626675e-02  1.617241e+03
4386.5729 -8.545817e-03  1.685375e+03
4386.9106 -1.661864e-02  1.672075e+03
4387.2483 -1.163473e-02  1.681992e+03
4387.5860  8.939728e-03  1.719630e+03
4387.9237  6.298642e-02  1.816786e+03
4388.2614  4.564434e-02  1.786997e+03
4388.5990  1.500604e-02  1.733563e+03
4388.9367 -1.432863e-02  1.682445e+03
4389.2744  2.514149e-02  1.753674e+03
4389.6121  2.891257e-02  1.761421e+03
4389.9498  5.479234e-02  1.808480e+03
4390.2875 -3.764321e-04  1.711416e+03
4390.6252  6.954154e-03  1.725487e+03
4390.9629  5.588801e-02  1.813536e+03
4391.3006  5.668879e-02  1.815991e+03
4391.6382  4.622131e-02  1.798408e+03
4391.9759  4.923776e-02  1.804800e+03
4392.3136  4.206016e-02  1.793063e+03
4392.6513  1.208675e-02  1.740789e+03
4392.9890  6.372453e-03  1.731650e+03
4393.3267  6.718780e-03  1.733287e+03
4393.6644  1.819765e-02  1.754717e+03
4394.0021  1.654181e-02  1.752790e+03
4394.3398  4.653243e-02  1.807134e+03
4394.6775  3.157560e-02  1.781551e+03
4395.0151  1.099483e-02  1.745965e+03
4395.3528  4.347272e-02  1.804726e+03
4395.6905 -2.321897e-02  1.687142e+03
4396.0282  1.109157e-02  1.749159e+03
4396.3659 -2.243647e-02  1.690542e+03
4396.7036 -3.018360e-02  1.677768e+03
4397.0413  5.677387e-02  1.833396e+03
4397.3790  5.278655e-02  1.827303e+03
4397.7167 -1.191404e-02  1.713248e+03
4398.0543  1.406830e-02  1.760443e+03
4398.3920 -2.235940e-02  1.696659e+03
4398.7297 -8.618672e-03  1.722083e+03
4399.0674 -2.665001e-02  1.691008e+03
4399.4051  5.114914e-02  1.830337e+03
4399.7428  1.108357e-02  1.760076e+03
4400.0805  9.271743e-03  1.757837e+03
4400.4182  4.824776e-03  1.750909e+03
4400.7559 -5.179338e-03  1.734098e+03
4401.0936  1.143825e-02  1.764625e+03
4401.4312  3.299379e-02  1.803929e+03
4401.7689 -3.946691e-03  1.739214e+03
4402.1066 -4.461027e-02  1.667877e+03
4402.4443 -5.627150e-02  1.648110e+03
4402.7820 -4.145283e-04  1.748402e+03
4403.1197  2.362244e-02  1.792110e+03
4403.4574 -1.395256e-02  1.726258e+03
4403.7951  5.726507e-02  1.853859e+03
4404.1328  5.866757e-02  1.857312e+03
4404.4705  2.229856e-02  1.793599e+03
4404.8081  2.248477e-02  1.794886e+03
4405.1458  9.770468e-03  1.773231e+03
4405.4835  1.078659e-03  1.758728e+03
4405.8212 -3.010036e-02  1.704235e+03
4406.1589 -1.267762e-02  1.736165e+03
4406.4966 -8.156516e-02  1.614616e+03
4406.8343  1.365404e-02  1.784880e+03
4407.1720  3.688552e-02  1.827134e+03
4407.5097  7.229374e-02  1.891039e+03
4407.8473  3.107430e-02  1.818682e+03
4408.1850  3.636324e-02  1.829024e+03
4408.5227 -1.263388e-02  1.742833e+03
4408.8604 -1.155217e-02  1.745691e+03
4409.1981  2.856358e-02  1.817958e+03
4409.5358  9.184592e-03  1.784429e+03
4409.8735 -3.061330e-02  1.714590e+03
4410.2112  3.032243e-02  1.823874e+03
4410.5489 -5.372462e-02  1.675346e+03
4410.8866  1.992647e-02  1.807237e+03
4411.2242 -6.825123e-03  1.760590e+03
4411.5619  3.830010e-02  1.841753e+03
4411.8996 -3.197281e-02  1.717712e+03
4412.2373  4.302895e-02  1.851998e+03
4412.5750 -1.987490e-04  1.776046e+03
4412.9127  3.360971e-02  1.837079e+03
4413.2504  1.176858e-03  1.780319e+03
4413.5881  1.838359e-02  1.811827e+03
4413.9258 -3.356113e-02  1.720368e+03
4414.2634 -2.454066e-02  1.737316e+03
4414.6011  3.020637e-02  1.835574e+03
4414.9388  4.293865e-03  1.790401e+03
4415.2765 -1.813569e-02  1.751420e+03
4415.6142 -1.124732e-02  1.764571e+03
4415.9519  1.088083e-02  1.804819e+03
4416.2896 -1.274374e-02  1.763708e+03
4416.6273  4.315893e-03  1.794941e+03
4416.9650  3.362616e-02  1.847957e+03
4417.3027 -3.443071e-02  1.727832e+03
4417.6403 -8.665354e-02  1.635862e+03
4417.9780 -2.041492e-02  1.754539e+03
4418.3157 -3.341347e-02  1.732315e+03
4418.6534 -9.999971e-03  1.774838e+03
4418.9911 -1.788015e-02  1.761712e+03
4419.3288 -1.745235e-02  1.763359e+03
4419.6665  3.085657e-02  1.850147e+03
4420.0042 -5.210980e-04  1.795234e+03
4420.3419  9.857214e-03  1.814571e+03
4420.6795  9.699354e-03  1.815170e+03
4421.0172  1.121641e-02  1.818747e+03
4421.3549 -2.983132e-02  1.746634e+03
4421.6926  2.981170e-02  1.853568e+03
4422.0303 -2.156290e-02  1.763089e+03
4422.3680 -1.437436e-02  1.776746e+03
4422.7057 -4.529875e-02  1.722629e+03
4423.0434  3.478467e-03  1.810237e+03
4423.3811  9.438365e-02  1.972756e+03
4423.7188  1.090290e-02  1.825179e+03
4424.0564  3.382128e-03  1.812674e+03
4424.3941 -1.433092e-02  1.782044e+03
4424.7318 -3.752165e-02  1.741672e+03
4425.0695 -2.400386e-02  1.766575e+03
4425.4072 -1.488244e-02  1.783658e+03
4425.7449  2.028790e-02  1.847062e+03
4426.0826  1.947208e-02  1.846473e+03
4426.4203  5.446512e-03  1.822393e+03
4426.7580  2.339524e-02  1.855169e+03
4427.0956 -1.846222e-02  1.781597e+03
4427.4333  5.241627e-02  1.908491e+03
4427.7710 -2.108034e-02  1.778656e+03
4428.1087 -3.457800e-02  1.755510e+03
4428.4464  1.497510e-02  1.844481e+03
4428.7841  2.792695e-02  1.868366e+03
4429.1218  2.271012e-02  1.859943e+03
4429.4595 -1.151265e-02  1.799940e+03
4429.7972 -2.121938e-02  1.783531e+03
4430.1349 -4.548641e-02  1.741229e+03
4430.4725 -3.234617e-02  1.765445e+03
4430.8102 -1.358897e-02  1.799648e+03
4431.1479  1.303154e-02  1.847833e+03
4431.4856  9.651691e-03  1.842670e+03
4431.8233 -4.533323e-03  1.818293e+03
4432.1610  3.183927e-03  1.832862e+03
4432.4987 -1.142553e-02  1.807728e+03
4432.8364  2.893715e-02  1.880346e+03
4433.1741  6.893591e-02  1.952316e+03
4433.5118 -3.610387e-02  1.766376e+03
4433.8494 -1.909324e-02  1.797467e+03
4434.1871  8.266144e-03  1.846959e+03
4434.5248  4.951861e-03  1.841907e+03
4434.8625 -6.370076e-02  1.720669e+03
4435.2002 -7.737224e-04  1.833406e+03
4435.5379  7.931734e-03  1.849726e+03
4435.8756 -1.249544e-02  1.814241e+03
4436.2133 -2.086176e-02  1.800202e+03
4436.5510  7.555626e-03  1.851572e+03
4436.8886  1.172369e-02  1.859821e+03
4437.2263  3.469212e-04  1.840427e+03
4437.5640  2.166632e-02  1.879174e+03
4437.9017 -7.113133e-03  1.828833e+03
4438.2394  1.238239e-02  1.864336e+03
4438.5771 -5.539977e-03  1.833301e+03
4438.9148 -4.060336e-02  1.771786e+03
4439.2525 -2.118719e-03  1.841053e+03
4439.5902  7.702301e-02  1.982618e+03
4439.9279  7.531958e-02  1.980422e+03
4440.2655  3.814535e-02  1.915151e+03
4440.6032  2.931631e-02  1.900284e+03
4440.9409 -9.282997e-04  1.847335e+03
4441.2786 -1.112473e-02  1.830036e+03
4441.6163  1.457527e-02  1.876568e+03
4441.9540  4.137707e-03  1.858839e+03
4442.2917  6.869574e-03  1.864528e+03
4442.6294  1.218967e-02  1.874820e+03
4442.9671  2.742087e-02  1.902735e+03
4443.3047 -2.167064e-02  1.816270e+03
4443.6424  2.861468e-02  1.906518e+03
4443.9801  4.848084e-02  1.942675e+03
4444.3178 -2.611033e-02  1.810866e+03
4444.6555 -4.382877e-03  1.850332e+03
4444.9932 -1.888044e-02  1.825382e+03
4445.3309 -3.741252e-02  1.793258e+03
4445.6686 -9.546636e-03  1.843639e+03
4446.0063  4.349716e-02  1.938791e+03
4446.3440  4.586608e-02  1.943833e+03
4446.6816  1.811410e-02  1.895313e+03
4447.0193 -2.348390e-03  1.859756e+03
4447.3570  2.009210e-03  1.868334e+03
4447.6947 -3.096515e-02  1.810528e+03
4448.0324 -6.514409e-03  1.854835e+03
4448.3701  1.180607e-02  1.888242e+03
4448.7078  3.347568e-02  1.927604e+03
4449.0455  5.999827e-02  1.975596e+03
4449.3832  3.147091e-02  1.925698e+03
4449.7208  3.709517e-02  1.936528e+03
4450.0585 -2.495206e-02  1.827024e+03
4450.3962 -3.804252e-02  1.804576e+03
4450.7339  1.850728e-02  1.905963e+03
4451.0716  7.752547e-02  2.011739e+03
4451.4093  6.061584e-02  1.982500e+03
4451.7470  3.167759e-02  1.931871e+03
4452.0847 -1.696207e-03  1.873355e+03
4452.4224 -8.805311e-03  1.861544e+03
4452.7601  4.116571e-02  1.951233e+03
4453.0977  1.462812e-03  1.881463e+03
4453.4354  7.864256e-03  1.893676e+03
4453.7731  7.522251e-03  1.893899e+03
4454.1108  9.586515e-04  1.883058e+03
4454.4485  4.306721e-02  1.958767e+03
4454.7862  2.975881e-02  1.935933e+03
4455.1239  1.105456e-02  1.903504e+03
4455.4616 -1.926065e-02  1.850429e+03
4455.7993 -1.166997e-02  1.864759e+03
4456.1370  4.276469e-02  1.962387e+03
4456.4746  6.883943e-03  1.899416e+03
4456.8123 -1.967703e-02  1.853017e+03
4457.1500 -5.573105e-02  1.789738e+03
4457.4877 -1.237192e-02  1.867673e+03
4457.8254  1.221088e-02  1.912219e+03
4458.1631  1.266399e-02  1.913859e+03
4458.5008  2.077331e-02  1.929113e+03
4458.8385  2.187070e-02  1.931898e+03
4459.1762  3.546645e-02  1.956909e+03
4459.5138  1.957370e-02  1.929483e+03
4459.8515  3.645077e-03  1.901993e+03
4460.1892  2.877508e-02  1.947515e+03
4460.5269  4.318815e-02  1.973980e+03
4460.8646  2.605017e-02  1.944341e+03
4461.2023 -1.222276e-02  1.877120e+03
4461.5400 -4.327618e-02  1.822738e+03
4461.8777 -3.050515e-02  1.846284e+03
4462.2154 -3.247686e-03  1.895591e+03
4462.5531  6.545366e-04  1.903367e+03
4462.8907  2.309205e-02  1.944104e+03
4463.2284  2.673934e-02  1.951428e+03
4463.5661 -2.814499e-02  1.854671e+03
4463.9038  1.371848e-02  1.929952e+03
4464.2415  2.289242e-02  1.947104e+03
4464.5792  3.156984e-02  1.963375e+03
4464.9169  1.113169e-02  1.927871e+03
4465.2546 -2.907789e-02  1.857211e+03
4465.5923  5.447108e-02  2.006619e+03
4465.9299 -1.750937e-02  1.879464e+03
4466.2676  1.836266e-02  1.944094e+03
4466.6053  2.833925e-02  1.962676e+03
4466.9430  4.039587e-02  1.984958e+03
4467.2807 -5.732645e-02  1.812030e+03
4467.6184 -2.805237e-02  1.864928e+03
4467.9561 -2.311640e-02  1.874549e+03
4468.2938  5.016334e-03  1.925418e+03
4468.6315 -3.345171e-02  1.857858e+03
4468.9692 -5.644561e-02  1.817815e+03
4469.3068 -4.494029e-02  1.839118e+03
4469.6445 -3.476009e-02  1.858066e+03
4469.9822 -2.360047e-02  1.878756e+03
4470.3199 -2.114877e-02  1.883961e+03
4470.6576 -1.259660e-02  1.900015e+03
4470.9953 -3.222680e-02  1.865955e+03
4471.3330 -7.638928e-02  1.788272e+03
4471.6707  1.587481e-02  1.953184e+03
4472.0084 -4.551539e-02  1.844867e+03
4472.3460 -6.025718e-02  1.819501e+03
4472.6837  2.842841e-02  1.978051e+03
4473.0214 -1.189307e-02  1.907200e+03
4473.3591 -8.582383e-03  1.913936e+03
4473.6968 -3.581732e-02  1.866356e+03
4474.0345 -4.186981e-03  1.923451e+03
4474.3722 -5.098813e-03  1.922679e+03
4474.7099 -3.840625e-02  1.864302e+03
4475.0476  2.505119e-03  1.937902e+03
4475.3853 -4.344987e-03  1.926572e+03
4475.7229  4.894172e-03  1.943852e+03
4476.0606 -4.791034e-02  1.850806e+03
4476.3983 -2.401358e-02  1.894151e+03
4476.7360 -3.850180e-02  1.869240e+03
4477.0737  4.284220e-02  2.014739e+03
4477.4114  3.837512e-02  2.007648e+03
4477.7491  4.147648e-02  2.014015e+03
4478.0868  9.184345e-03  1.957446e+03
4478.4245  9.247599e-04  1.943612e+03
4478.7622 -2.203652e-02  1.903635e+03
4479.0998 -7.535644e-03  1.930274e+03
4479.4375 -2.881308e-02  1.893292e+03
4479.7752 -4.939440e-02  1.857549e+03
4480.1129 -6.388523e-02  1.832635e+03
4480.4506 -2.490384e-02  1.902806e+03
4480.7883 -4.255836e-02  1.872267e+03
4481.1260 -8.906186e-02  1.790429e+03
4481.4637 -1.048970e-01  1.763126e+03
4481.8014 -9.557778e-02  1.780552e+03
4482.1390 -1.268085e-01  1.725873e+03
4482.4767 -1.566432e-01  1.673675e+03
4482.8144 -1.037601e-01  1.768568e+03
4483.1521 -3.545674e-02  1.890881e+03
4483.4898 -2.031757e-02  1.918657e+03
4483.8275 -1.798793e-02  1.923655e+03
4484.1652  2.180264e-02  1.995266e+03
4484.5029  5.113770e-02  2.048286e+03
4484.8406  3.442097e-03  1.964328e+03
4485.1783  2.665814e-02  2.006467e+03
4485.5159  3.482635e-02  2.021847e+03
4485.8536  3.389199e-02  2.021042e+03
4486.1913  6.132094e-03  1.972534e+03
4486.5290  5.411669e-02  2.058716e+03
4486.8667  3.321650e-02  2.022407e+03
4487.2044 -1.340617e-02  1.940357e+03
4487.5421  2.888414e-02  2.016414e+03
4487.8798 -7.806114e-04  1.964519e+03
4488.2175  5.103964e-03  1.975838e+03
4488.5551  4.408371e-02  2.046007e+03
4488.8928 -2.000131e-02  1.932905e+03
4489.2305 -3.522051e-02  1.906697e+03
4489.5682 -3.197298e-02  1.913326e+03
4489.9059 -2.911444e-02  1.919264e+03
4490.2436 -1.632147e-02  1.942866e+03
4490.5813 -2.075860e-02  1.935830e+03
4490.9190 -2.302926e-02  1.932646e+03
4491.2567  1.220600e-02  1.996155e+03
4491.5944  6.580257e-03  1.987004e+03
4491.9320 -8.186487e-03  1.961599e+03
4492.2697 -2.528366e-02  1.932049e+03
4492.6074 -5.118417e-03  1.968759e+03
4492.9451  2.750290e-02  2.027619e+03
4493.2828  8.314262e-02  2.127409e+03
4493.6205  6.628869e-02  2.098291e+03
4493.9582  3.059751e-02  2.035675e+03
4494.2959  2.250481e-02  2.022135e+03
4494.6336 -1.303172e-02  1.959793e+03
4494.9712 -3.599637e-02  1.919807e+03
4495.3089 -9.059608e-04  1.983054e+03
4495.6466  8.011320e-03  1.999759e+03
4495.9843  2.971037e-02  2.039193e+03
4496.3220  2.210000e-02  2.026507e+03
4496.6597  2.113415e-02  2.025637e+03
4496.9974  1.607720e-02  2.017491e+03
4497.3351  3.277867e-02  2.048036e+03
4497.6728 -3.724733e-02  1.924360e+03
4498.0105 -4.725389e-02  1.907411e+03
4498.3481  1.749872e-02  2.023399e+03
4498.6858 -3.270709e-03  1.987310e+03
4499.0235  4.313457e-02  2.070671e+03
4499.3612 -3.453066e-03  1.988670e+03
4499.6989 -1.453738e-02  1.969801e+03
4500.0366 -3.601904e-02  1.932443e+03
4500.3743  5.634119e-03  2.007351e+03
4500.7120  2.081130e-02  2.035178e+03
4501.0497  3.920384e-02  2.068722e+03
4501.3873  2.019691e-02  2.035761e+03
4501.7250 -5.411920e-03  1.991060e+03
4502.0627 -5.070582e-02  1.911354e+03
4502.4004 -5.706631e-02  1.900879e+03
4502.7381 -3.270114e-02  1.945039e+03
4503.0758 -1.529595e-02  1.976822e+03
4503.4135  8.273660e-03  2.019566e+03
4503.7512 -9.852326e-03  1.988166e+03
4504.0889  4.569628e-02  2.087773e+03
4504.4266  2.349872e-02  2.049130e+03
4504.7642  1.057085e-02  2.026970e+03
4505.1019 -5.924347e-02  1.903653e+03
4505.4396 -1.964716e-02  1.974890e+03
4505.7773 -4.675023e-03  2.002339e+03
4506.1150 -1.365469e-02  1.987195e+03
4506.4527  4.476308e-02  2.091897e+03
4506.7904 -2.206445e-02  1.973885e+03
4507.1281  7.339463e-03  2.026992e+03
4507.4658  1.839596e-02  2.047472e+03
4507.8035 -2.320120e-02  1.974322e+03
4508.1411 -5.305558e-02  1.922052e+03
4508.4788 -4.263216e-02  1.941403e+03
4508.8165 -2.722055e-02  1.969622e+03
4509.1542  3.838631e-02  2.087098e+03
4509.4919  9.453636e-03  2.036462e+03
4509.8296 -9.327261e-03  2.003876e+03
4510.1673 -2.646624e-02  1.974209e+03
4510.5050 -2.315169e-02  1.980911e+03
4510.8427  2.908311e-02  2.074602e+03
4511.1803  5.441187e-02  2.120447e+03
4511.5180  4.264340e-02  2.100324e+03
4511.8557 -2.261793e-02  1.985078e+03
4512.1934  4.895869e-02  2.113157e+03
4512.5311  2.882438e-02  2.078153e+03
4512.8688 -9.799945e-04  2.025953e+03
4513.2065  4.383858e-03  2.036287e+03
4513.5442  2.403717e-02  2.072029e+03
4513.8819  5.907400e-03  2.040584e+03
4514.2196 -2.005354e-04  2.030514e+03
4514.5572  1.659722e-02  2.061174e+03
4514.8949 -4.640154e-02  1.949938e+03
4515.2326 -8.811025e-03  2.017568e+03
4515.5703 -2.092780e-02  1.996807e+03
4515.9080 -4.036260e-02  1.963031e+03
4516.2457 -2.076632e-02  1.998659e+03
4516.5834 -1.877863e-02  2.002974e+03
4516.9211  5.553618e-02  2.135899e+03
4517.2588  6.286308e-02  2.149704e+03
4517.5964  6.314661e-02  2.150983e+03
4517.9341  4.822248e-02  2.125218e+03
4518.2718  6.759670e-02  2.160440e+03
4518.6095  1.888420e-02  2.074588e+03
4518.9472  1.564843e-02  2.069602e+03
4519.2849 -1.306483e-02  2.019309e+03
4519.6226  3.001127e-02  2.096671e+03
4519.9603 -6.187686e-03  2.033063e+03
4520.2980  4.063554e-03  2.052052e+03
4520.6357 -1.270654e-02  2.022989e+03
4520.9733  1.284496e-02  2.069180e+03
4521.3110 -9.877020e-03  2.029530e+03
4521.6487 -2.308341e-02  2.006798e+03
4521.9864  1.665812e-02  2.078216e+03
4522.3241  7.484612e-03  2.062652e+03
4522.6618  4.596463e-02  2.131823e+03
4522.9995  9.002296e-03  2.066840e+03
4523.3372  3.779075e-02  2.118773e+03
4523.6749 -6.915901e-02  1.929333e+03
4524.0125 -9.437419e-03  2.036268e+03
4524.3502  5.080923e-02  2.144134e+03
4524.6879 -2.065535e-02  2.017788e+03
4525.0256  4.514433e-02  2.135525e+03
4525.3633  6.026317e-04  2.057049e+03
4525.7010  9.790838e-03  2.074114e+03
4526.0387 -6.442089e-02  1.942874e+03
4526.3764  4.047944e-02  2.130131e+03
4526.7141  3.373603e-02  2.118859e+03
4527.0518  2.281640e-02  2.100159e+03
4527.3894  5.567472e-03  2.070202e+03
4527.7271  2.075598e-02  2.097923e+03
4528.0648  3.429320e-03  2.067823e+03
4528.4025  2.180088e-02  2.101200e+03
4528.7402  5.407112e-02  2.159289e+03
4529.0779  3.168585e-03  2.069478e+03
4529.4156 -2.261415e-02  2.024332e+03
4529.7533  4.551220e-02  2.146173e+03
4530.0910  3.905771e-02  2.135392e+03
4530.4287  2.197580e-02  2.105711e+03
4530.7663  2.507924e-02  2.111921e+03
4531.1040  5.508992e-02  2.165976e+03
4531.4417  2.785660e-02  2.118236e+03
4531.7794  4.083271e-03  2.076646e+03
4532.1171  3.829795e-02  2.138169e+03
4532.4548  3.115255e-02  2.126143e+03
4532.7925 -1.591936e-02  2.043116e+03
4533.1302 -3.901996e-03  2.065160e+03
4533.4679 -4.268811e-02  1.996862e+03
4533.8055  3.429532e-02  2.134424e+03
4534.1432  2.925042e-03  2.079308e+03
4534.4809 -2.217530e-02  2.035339e+03
4534.8186 -1.659682e-02  2.045920e+03
4535.1563  1.815062e-02  2.108368e+03
4535.4940 -2.118479e-02  2.039078e+03
4535.8317 -4.246133e-02  2.001898e+03
4536.1694  3.132158e-02  2.133751e+03
4536.5071  4.059499e-03  2.085922e+03
4536.8448 -1.690777e-02  2.049285e+03
4537.1824  1.729506e-02  2.110748e+03
4537.5201  6.388576e-02  2.194238e+03
4537.8578  5.184669e-02  2.173468e+03
4538.1955  2.695283e-03  2.086703e+03
4538.5332  1.663828e-02  2.112130e+03
4538.8709  3.770840e-02  2.150228e+03
4539.2086  1.184088e-02  2.104858e+03
4539.5463  7.104404e-02  2.210759e+03
4539.8840  1.089891e-02  2.104432e+03
4540.2216  3.631625e-02  2.150249e+03
4540.5593  1.234344e-02  2.108238e+03
4540.8970  1.738548e-02  2.117819e+03
4541.2347 -1.702006e-02  2.057251e+03
4541.5724  3.877390e-02  2.157074e+03
4541.9101 -2.106148e-02  2.051281e+03
4542.2478  8.178060e-03  2.103880e+03
4542.5855 -4.264607e-02  2.014106e+03
4542.9232  6.192696e-03  2.101550e+03
4543.2609  3.439946e-02  2.152304e+03
4543.5985  2.159196e-02  2.130124e+03
4543.9362  9.218300e-03  2.108712e+03
4544.2739  5.435086e-02  2.189555e+03
4544.6116  1.809003e-02  2.125662e+03
4544.9493  6.897596e-02  2.216730e+03
4545.2870  1.456350e-02  2.120554e+03
4545.6247  8.876401e-02  2.253076e+03
4545.9624  3.685814e-02  2.161352e+03
4546.3001  2.728084e-02  2.144894e+03
4546.6377  6.857959e-02  2.218901e+03
4546.9754  1.761978e-02  2.128851e+03
4547.3131  5.226446e-02  2.191021e+03
4547.6508 -2.043166e-02  2.062314e+03
4547.9885  4.986871e-02  2.187882e+03
4548.3262  5.074940e-02  2.190004e+03
4548.6639 -3.818525e-03  2.093525e+03
4549.0016  1.606457e-03  2.103723e+03
4549.3393 -3.258777e-03  2.095620e+03
4549.6770 -5.281920e-02  2.008038e+03
4550.0146 -6.830276e-02  1.981048e+03
4550.3523 -7.489570e-02  1.969865e+03
4550.6900 -1.235134e-01  1.883951e+03
4551.0277 -7.476690e-02  1.971168e+03
4551.3654 -3.005657e-02  2.051205e+03
4551.7031 -5.864136e-03  2.094755e+03
4552.0408  1.961264e-02  2.140585e+03
4552.3785  2.091540e-02  2.143427e+03
4552.7162  4.098424e-02  2.179636e+03
4553.0539  6.584875e-02  2.224371e+03
4553.3915 -8.977053e-03  2.091833e+03
4553.7292 -3.708034e-02  2.042374e+03
4554.0669 -4.400928e-03  2.100997e+03
4554.4046 -7.078720e-03  2.096746e+03
4554.7423 -2.556046e-02  2.064389e+03
4555.0800  5.395383e-02  2.206287e+03
4555.4177  1.852656e-03  2.114142e+03
4555.7554 -2.920188e-02  2.059421e+03
4556.0931 -4.848047e-03  2.103225e+03
4556.4307 -9.149916e-03  2.096070e+03
4556.7684 -9.367196e-02  1.946265e+03
4557.1061 -2.553463e-02  2.067917e+03
4557.4438  1.372249e-04  2.114055e+03
4557.7815  3.095104e-03  2.119800e+03
4558.1192  3.270242e-03  2.120595e+03
4558.4569 -5.308121e-02  2.020871e+03
4558.7946 -1.810461e-02  2.083545e+03
4559.1323 -1.539095e-03  2.113478e+03
4559.4700 -1.867758e-02  2.083475e+03
4559.8076  1.247440e-03  2.119377e+03
4560.1453 -5.519723e-03  2.107813e+03
4560.4830 -5.674543e-02  2.017190e+03
4560.8207  2.718843e-02  2.166906e+03
4561.1584  4.880524e-02  2.205807e+03
4561.4961  8.183522e-02  2.265001e+03
4561.8338  5.000828e-02  2.208864e+03
4562.1715  2.333846e-02  2.161895e+03
4562.5092  1.009326e-01  2.300327e+03
4562.8468  4.284233e-02  2.197482e+03
4563.1845  1.585544e-02  2.149942e+03
4563.5222 -6.008019e-03  2.111511e+03
4563.8599 -1.672997e-02  2.092890e+03
4564.1976  2.169088e-02  2.161653e+03
4564.5353  3.493530e-02  2.185645e+03
4564.8730  5.894405e-02  2.228776e+03
4565.2107  1.763777e-02  2.155762e+03
4565.5484  1.934110e-02  2.159225e+03
4565.8861  2.423796e-02  2.168365e+03
4566.2237  1.033491e-02  2.144073e+03
4566.5614 -2.605556e-02  2.079792e+03
4566.8991 -2.996322e-02  2.073270e+03
4567.2368  7.793861e-03  2.140835e+03
4567.5745  2.485918e-02  2.171603e+03
4567.9122  7.387272e-03  2.140956e+03
4568.2499  2.772053e-02  2.177531e+03
4568.5876  7.022137e-02  2.253524e+03
4568.9253  2.471082e-02  2.173012e+03
4569.2629 -5.263305e-03  2.120126e+03
4569.6006  2.477214e-02  2.173947e+03
4569.9383  4.616441e-02  2.212397e+03
4570.2760  8.224829e-03  2.145342e+03
4570.6137  3.149419e-02  2.187126e+03
4570.9514  4.504943e-02  2.211635e+03
4571.2891  5.620645e-03  2.141927e+03
4571.6268  1.786667e-02  2.164104e+03
4571.9645  2.481725e-02  2.176865e+03
4572.3022  2.244001e-02  2.173036e+03
4572.6398 -3.093313e-02  2.078525e+03
4572.9775 -5.891736e-02  2.029159e+03
4573.3152 -5.823338e-02  2.030770e+03
4573.6529 -5.782380e-02  2.031891e+03
4573.9906 -5.741369e-02  2.033011e+03
4574.3283 -5.700299e-02  2.034132e+03
4574.6660 -5.659124e-02  2.035253e+03
4575.0037 -5.617888e-02  2.036373e+03
4575.3414 -5.576549e-02  2.037494e+03
4575.6790 -5.535151e-02  2.038615e+03
4576.0167 -5.493662e-02  2.039736e+03
4576.3544 -5.452116e-02  2.040857e+03
4576.6921 -5.410474e-02  2.041979e+03
4577.0298 -5.368780e-02  2.043100e+03
4577.3675 -5.327006e-02  2.044222e+03
4577.7052 -5.285183e-02  2.045343e+03
4578.0429 -5.243276e-02  2.046464e+03
4578.3806 -5.201317e-02  2.047586e+03
4578.7183 -5.159284e-02  2.048708e+03
4579.0559 -5.117174e-02  2.049830e+03
4579.3936 -5.075035e-02  2.050951e+03
4579.7313 -5.032815e-02  2.052073e+03
4580.0690 -4.990542e-02  2.053195e+03
4580.4067 -4.948232e-02  2.054317e+03
4580.7444 -4.905845e-02  2.055439e+03
4581.0821 -4.863397e-02  2.056562e+03
4581.4198 -4.820958e-02  2.057684e+03
4581.7575 -4.778419e-02  2.058806e+03
4582.0952 -4.735852e-02  2.059928e+03
4582.4328 -4.693243e-02  2.061051e+03
4582.7705 -4.650581e-02  2.062173e+03
4583.1082 -4.607867e-02  2.063296e+03
4583.4459 -4.565117e-02  2.064419e+03
4583.7836 -4.522346e-02  2.065542e+03
4584.1213 -4.479515e-02  2.066665e+03
4584.4590 -4.436680e-02  2.067787e+03
4584.7967 -4.393760e-02  2.068911e+03
4585.1344 -4.350867e-02  2.070033e+03
4585.4720 -4.307908e-02  2.071156e+03
4585.8097 -4.264923e-02  2.072280e+03
4586.1474 -4.221901e-02  2.073403e+03
4586.4851 -4.178872e-02  2.074527e+03
4586.8228 -4.135824e-02  2.075650e+03
4587.1605 -4.092757e-02  2.076773e+03
4587.4982 -4.049632e-02  2.077897e+03
4587.8359 -4.006521e-02  2.079021e+03
4588.1736 -3.963382e-02  2.080145e+03
4588.5113 -3.920218e-02  2.081269e+03
4588.8489 -3.877072e-02  2.082392e+03
4589.1866 -3.833890e-02  2.083516e+03
4589.5243 -3.790716e-02  2.084640e+03
4589.8620 -3.747495e-02  2.085764e+03
4590.1997 -3.704299e-02  2.086888e+03
4590.5374 -3.661087e-02  2.088013e+03
4590.8751 -3.613564e-02  2.089214e+03
4591.2128 -3.551599e-02  2.090671e+03
4591.5505 -3.939886e-02  2.084123e+03
4591.8881 -1.477311e-02  2.128269e+03
4592.2258  1.090687e-02  2.174289e+03
4592.5635 -2.858153e-02  2.104427e+03
4592.9012 -5.087907e-02  2.065134e+03
4593.2389 -1.970741e-02  2.120920e+03
4593.5766 -5.913680e-03  2.145805e+03
4593.9143  2.740241e-02  2.205405e+03
4594.2520  4.091795e-02  2.229796e+03
4594.5897  1.568335e-02  2.185281e+03
4594.9274 -1.418685e-04  2.157499e+03
4595.2650  1.342143e-02  2.181976e+03
4595.6027  2.778770e-02  2.207881e+03
4595.9404  1.154815e-02  2.179363e+03
4596.2781  1.352325e-02  2.183234e+03
4596.6158  4.025267e-02  2.231125e+03
4596.9535  2.253228e-02  2.199975e+03
4597.2912  7.400315e-03  2.173428e+03
4597.6289  3.436370e-03  2.166741e+03
4597.9666 -2.534889e-03  2.156486e+03
4598.3042 -1.138379e-02  2.141113e+03
4598.6419 -3.613533e-02  2.097463e+03
4598.9796 -2.238496e-02  2.122279e+03
4599.3173  1.748297e-02  2.193537e+03
4599.6550  2.966809e-02  2.215570e+03
4599.9927 -2.141312e-02  2.125103e+03
4600.3304  1.191790e-02  2.184740e+03
4600.6681  3.675138e-02  2.229267e+03
4601.0058  2.729176e-02  2.212814e+03
4601.3435 -1.517410e-02  2.137670e+03
4601.6811 -3.470640e-02  2.103308e+03
4602.0188 -2.410343e-02  2.122533e+03
4602.3565 -1.097910e-02  2.146243e+03
4602.6942  2.272770e-02  2.206553e+03
4603.0319  6.876222e-03  2.178740e+03
4603.3696 -5.321932e-03  2.157424e+03
4603.7073  8.054703e-03  2.181586e+03
4604.0450  1.553104e-02  2.195257e+03
4604.3827  1.592977e-02  2.196344e+03
4604.7204  4.039385e-03  2.175579e+03
4605.0580 -1.752106e-02  2.137620e+03
4605.3957  3.910100e-04  2.169852e+03
4605.7334  1.586313e-02  2.197746e+03
4606.0711 -7.333781e-03  2.156880e+03
4606.4088  3.756508e-02  2.237104e+03
4606.7465  6.079171e-02  2.278791e+03
4607.0842  3.163884e-03  2.176703e+03
4607.4219 -7.215113e-04  2.170182e+03
4607.7596  1.057378e-02  2.190656e+03
4608.0972  2.657201e-02  2.219494e+03
4608.4349 -1.262424e-03  2.170390e+03
4608.7726  2.648325e-02  2.220120e+03
4609.1103  6.689828e-02  2.292380e+03
4609.4480  5.612487e-02  2.273617e+03
4609.7857  3.057373e-02  2.228578e+03
4610.1234  2.695254e-02  2.222536e+03
4610.4611  1.918415e-02  2.209121e+03
4610.7988  1.091004e-02  2.194808e+03
4611.1365  8.140473e-03  2.190285e+03
4611.4741  3.630332e-02  2.240767e+03
4611.8118  5.451145e-02  2.273549e+03
4612.1495  2.406557e-02  2.219815e+03
4612.4872  2.051723e-02  2.213913e+03
4612.8249  6.268489e-02  2.289304e+03
4613.1626  6.868502e-02  2.300383e+03
4613.5003  1.464199e-02  2.204694e+03
4613.8380 -1.874469e-03  2.175737e+03
4614.1757 -3.253625e-03  2.173698e+03
4614.5133 -3.415218e-03  2.173826e+03
4614.8510  4.788918e-03  2.188832e+03
4615.1887 -1.116111e-02  2.160887e+03
4615.5264 -1.060721e-02  2.162292e+03
4615.8641 -1.205301e-02  2.160142e+03
4616.2018 -9.432792e-03  2.165224e+03
4616.5395  7.680933e-03  2.196079e+03
4616.8772  4.668085e-02  2.265855e+03
4617.2149  5.412923e-02  2.279526e+03
4617.5526  1.224157e-02  2.205470e+03
4617.8902  1.457966e-02  2.210057e+03
4618.2279  2.221516e-02  2.224066e+03
4618.5656 -9.359391e-03  2.168353e+03
4618.9033 -1.994031e-02  2.149972e+03
4619.2410  1.215292e-02  2.207476e+03
4619.5787  1.075393e-02  2.205425e+03
4619.9164 -2.088681e-02  2.149600e+03
4620.2541 -2.994293e-02  2.133937e+03
4620.5918  1.101219e-02  2.207205e+03
4620.9294  4.934743e-02  2.275816e+03
4621.2671  5.629122e-02  2.288608e+03
4621.6048  5.137319e-03  2.198092e+03
4621.9425 -1.443290e-02  2.163739e+03
4622.2802  1.716114e-02  2.220369e+03
4622.6179  6.505836e-03  2.201872e+03
4622.9556  1.509531e-02  2.217597e+03
4623.2933  1.860032e-02  2.224283e+03
4623.6310  3.336527e-02  2.250993e+03
4623.9687  3.747019e-02  2.258748e+03
4624.3063  3.704712e-02  2.258453e+03
4624.6440  3.911602e-02  2.262591e+03
4624.9817  3.725708e-03  2.200120e+03
4625.3194 -4.587474e-03  2.185799e+03
4625.6571  2.281595e-02  2.234990e+03
4625.9948  3.611848e-02  2.259109e+03
4626.3325  3.525489e-02  2.258039e+03
4626.6702  2.871241e-02  2.246872e+03
4627.0079  3.529495e-02  2.259046e+03
4627.3456 -1.120263e-02  2.176833e+03
4627.6832  5.433460e-03  2.206886e+03
4628.0209  1.113048e-02  2.217489e+03
4628.3586 -1.378771e-02  2.173652e+03
4628.6963 -1.204648e-02  2.177223e+03
4629.0340 -1.847944e-02  2.166260e+03
4629.3717  1.940353e-03  2.203047e+03
4629.7094 -1.798834e-02  2.168088e+03
4630.0471 -2.985635e-02  2.147463e+03
4630.3848 -2.680480e-02  2.153370e+03
4630.7224 -4.509157e-02  2.121334e+03
4631.0601 -3.297837e-02  2.143356e+03
4631.3978 -2.995256e-02  2.149221e+03
4631.7355 -4.541527e-03  2.194892e+03
4632.0732  1.980982e-02  2.238679e+03
4632.4109 -2.793211e-04  2.203443e+03
4632.7486 -9.122564e-03  2.188206e+03
4633.0863 -1.005234e-02  2.187042e+03
4633.4240  2.189627e-02  2.244343e+03
4633.7617  1.490536e-02  2.232402e+03
4634.0993  1.120094e-02  2.226306e+03
4634.4370  2.607903e-02  2.253255e+03
4634.7747 -2.367646e-02  2.165272e+03
4635.1124 -3.654979e-02  2.142875e+03
4635.4501 -5.049406e-03  2.199384e+03
4635.7878 -2.536847e-03  2.204347e+03
4636.1255  3.616951e-02  2.273672e+03
4636.4632  3.815366e-02  2.277697e+03
4636.8009 -7.210546e-03  2.197527e+03
4637.1385  1.585933e-02  2.239049e+03
4637.4762  7.971469e-04  2.212764e+03
4637.8139  1.393412e-02  2.236623e+03
4638.1516  4.054886e-02  2.284450e+03
4638.4893  3.745265e-02  2.279444e+03
4638.8270  3.184215e-02  2.269969e+03
4639.1647  2.685090e-02  2.261594e+03
4639.5024 -1.811606e-03  2.211128e+03
4639.8401  1.516874e-02  2.241824e+03
4640.1778  5.484144e-02  2.312873e+03
4640.5154  5.246137e-02  2.309143e+03
4640.8531  3.727971e-02  2.282650e+03
4641.1908  3.819381e-02  2.284778e+03
4641.5285  3.319491e-02  2.276392e+03
4641.8662  4.809560e-02  2.303392e+03
4642.2039  4.137641e-02  2.291947e+03
4642.5416  1.403015e-02  2.243823e+03
4642.8793  1.683845e-02  2.249320e+03
4643.2170  2.415667e-02  2.262837e+03
4643.5546  1.174032e-02  2.241261e+03
4643.8923 -1.980855e-02  2.185664e+03
4644.2300  2.342018e-02  2.263036e+03
4644.5677  4.190132e-02  2.296402e+03
4644.9054  4.129175e-02  2.295821e+03
4645.2431  2.916490e-02  2.274759e+03
4645.5808  5.741807e-03  2.233609e+03
4645.9185 -7.346798e-03  2.210836e+03
4646.2562 -2.252699e-02  2.184344e+03
4646.5939  2.374575e-02  2.267127e+03
4646.9315  6.430689e-02  2.339753e+03
4647.2692 -2.859338e-02  2.175056e+03
4647.6069 -4.087371e-02  2.153718e+03
4647.9446  2.272276e-02  2.267303e+03
4648.2823  3.243335e-02  2.285068e+03
4648.6200 -1.391337e-02  2.203150e+03
4648.9577 -1.383605e-02  2.203783e+03
4649.2954  1.909020e-02  2.262828e+03
4649.6331  2.244442e-02  2.269286e+03
4649.9707 -1.730745e-02  2.199092e+03
4650.3084  2.329959e-03  2.234503e+03
4650.6461  2.639632e-02  2.277788e+03
4650.9838  2.257620e-02  2.271485e+03
4651.3215  3.571457e-02  2.295336e+03
4651.6592 -1.844770e-03  2.229035e+03
4651.9969  8.992445e-03  2.248791e+03
4652.3346  2.189535e-02  2.272220e+03
4652.6723  1.614502e-03  2.236639e+03
4653.0100 -3.450095e-02  2.172900e+03
4653.3476 -7.086008e-02  2.108726e+03
4653.6853 -2.031005e-02  2.199093e+03
4654.0230  1.985968e-02  2.271000e+03
4654.3607  4.510917e-02  2.316374e+03
4654.6984  4.499986e-02  2.316653e+03
4655.0361 -6.431516e-04  2.235962e+03
4655.3738 -8.647668e-03  2.222198e+03
4655.7115  1.497200e-03  2.240705e+03
4656.0492  1.871089e-02  2.271781e+03
4656.3869  3.313311e-02  2.297890e+03
4656.7245  5.434702e-02  2.336075e+03
4657.0622  2.720803e-02  2.288276e+03
4657.3999  1.061062e-02  2.259220e+03
4657.7376  1.055285e-02  2.259572e+03
4658.0753  9.707483e-03  2.258522e+03
4658.4130  3.020141e-02  2.295415e+03
4658.7507  2.299191e-02  2.283043e+03
4659.0884  3.434949e-02  2.303685e+03
4659.4261  2.402771e-02  2.285774e+03
4659.7637  3.048438e-02  2.297696e+03
4660.1014  2.111921e-02  2.281480e+03
4660.4391  6.565611e-04  2.245529e+03
4660.7768 -1.459044e-02  2.218849e+03
4661.1145 -2.720939e-02  2.196839e+03
4661.4522 -5.515235e-03  2.235843e+03
4661.7899  4.522029e-02  2.326485e+03
4662.1276  3.786984e-02  2.313835e+03
4662.4653  1.924733e-02  2.281138e+03
4662.8030 -2.219973e-03  2.243379e+03
4663.1406 -7.297578e-03  2.234761e+03
4663.4783  1.087550e-02  2.267485e+03
4663.8160  2.440406e-02  2.291947e+03
4664.1537  2.445234e-02  2.292434e+03
4664.4914  2.203314e-02  2.288530e+03
4664.8291  9.068418e-03  2.265871e+03
4665.1668  4.552491e-02  2.331089e+03
4665.5045  3.373795e-02  2.310517e+03
4665.8422  1.942165e-03  2.254361e+03
4666.1798 -1.215327e-02  2.229676e+03
4666.5175 -1.734514e-02  2.220820e+03
4666.8552  3.632332e-02  2.316626e+03
4667.1929  3.810850e-02  2.320169e+03
4667.5306 -4.427191e-03  2.244897e+03
4667.8683 -2.527021e-02  2.208194e+03
4668.2060 -3.478446e-02  2.191632e+03
4668.5437 -4.039869e-02  2.182001e+03
4668.8814 -3.424584e-02  2.193291e+03
4669.2191 -3.109134e-02  2.199244e+03
4669.5567  9.881107e-03  2.272441e+03
4669.8944 -2.143754e-02  2.217086e+03
4670.2321 -4.483559e-02  2.175810e+03
4670.5698 -3.491328e-02  2.193781e+03
4670.9075 -3.307185e-02  2.197377e+03
4671.2452 -1.088349e-02  2.237150e+03
4671.5829  1.122564e-02  2.276777e+03
4671.9206 -2.776310e-02  2.207755e+03
4672.2583 -3.671626e-02  2.192138e+03
4672.5959 -3.496643e-02  2.195548e+03
4672.9336 -3.511791e-02  2.195573e+03
4673.2713 -2.027227e-02  2.222260e+03
4673.6090 -1.783952e-02  2.226870e+03
4673.9467 -2.069671e-02  2.222068e+03
4674.2844 -2.326796e-02  2.217770e+03
4674.6221 -4.475900e-02  2.179823e+03
4674.9598 -4.904480e-02  2.172466e+03
4675.2975 -3.954550e-02  2.189616e+03
4675.6352  2.569802e-04  2.260646e+03
4675.9728  1.390841e-02  2.285169e+03
4676.3105  1.169049e-02  2.281468e+03
4676.6482  1.177352e-02  2.281853e+03
4676.9859  1.902743e-02  2.294983e+03
4677.3236 -6.341742e-03  2.250098e+03
4677.6613 -5.315826e-03  2.252143e+03
4677.9990  5.213331e-04  2.262737e+03
4678.3367 -3.020572e-02  2.208308e+03
4678.6744 -5.863083e-02  2.157966e+03
4679.0121 -4.537328e-02  2.181738e+03
4679.3497 -3.526438e-02  2.199906e+03
4679.6874 -4.147930e-02  2.189041e+03
4680.0251 -4.384610e-02  2.185013e+03
4680.3628 -3.186519e-02  2.206492e+03
4680.7005 -2.736096e-02  2.214671e+03
4681.0382 -2.794582e-03  2.258518e+03
4681.3759  8.959843e-03  2.279576e+03
4681.7136  1.567150e-02  2.291662e+03
4682.0513  2.698655e-04  2.264419e+03
4682.3889 -3.492309e-02  2.201977e+03
4682.7266 -3.472498e-02  2.202462e+03
4683.0643 -5.454909e-02  2.167336e+03
4683.4020 -7.754852e-03  2.250666e+03
4683.7397 -3.011050e-05  2.264516e+03
4684.0774 -3.924588e-02  2.194890e+03
4684.4151 -3.587380e-03  2.258399e+03
4684.7528  1.109041e-02  2.284594e+03
4685.0905 -1.576858e-03  2.262157e+03
4685.4282 -2.946360e-02  2.212650e+03
4685.7658 -5.047657e-02  2.175360e+03
4686.1035 -2.983431e-02  2.212135e+03
4686.4412  2.055318e-02  2.301797e+03
4686.7789  4.836000e-02  2.351300e+03
4687.1166  1.467858e-02  2.291456e+03
4687.4543 -3.135137e-02  2.209648e+03
4687.7920 -5.936783e-02  2.159865e+03
4688.1297 -4.100985e-02  2.192539e+03
4688.4674 -1.149669e-02  2.245042e+03
4688.8050 -1.569922e-02  2.237586e+03
4689.1427 -8.235132e-03  2.250868e+03
4689.4804 -1.389783e-02  2.240801e+03
4689.8181 -2.013656e-02  2.229704e+03
4690.1558 -8.044005e-03  2.251196e+03
4690.4935  5.610238e-03  2.275459e+03
4690.8312  7.332882e-03  2.278498e+03
4691.1689  2.564427e-02  2.311028e+03
4691.5066 -5.644155e-03  2.255353e+03
4691.8443 -1.980091e-03  2.261824e+03
4692.1819 -5.071412e-03  2.256276e+03
4692.5196  6.357115e-03  2.276540e+03
4692.8573  2.462869e-03  2.269550e+03
4693.1950 -1.574993e-03  2.262298e+03
4693.5327 -1.366059e-02  2.240729e+03
4693.8704 -7.050063e-03  2.252398e+03
4694.2081  4.750112e-03  2.273289e+03
4694.5458 -1.768951e-02  2.233288e+03
4694.8835 -2.251476e-02  2.224602e+03
4695.2211 -8.406502e-03  2.249576e+03
4695.5588 -1.757854e-02  2.233147e+03
4695.8965 -1.315294e-02  2.240890e+03
4696.2342  6.293547e-02  2.376058e+03
4696.5719  3.752859e-02  2.330739e+03
4696.9096  1.832514e-02  2.296444e+03
4697.2473  1.048578e-02  2.282350e+03
4697.5850 -2.887109e-02  2.212205e+03
4697.9227 -1.929013e-02  2.229075e+03
4698.2604 -4.327758e-03  2.255507e+03
4698.5980 -1.972786e-02  2.227941e+03
4698.9357  2.188030e-04  2.263223e+03
4699.2734 -9.592375e-03  2.245583e+03
4699.6111  3.060445e-03  2.267881e+03
4699.9488  2.219904e-02  2.301706e+03
4700.2865 -1.633084e-02  2.232977e+03
4700.6242 -1.071856e-02  2.242736e+03
4700.9619  3.053908e-03  2.266999e+03
4701.2996  5.130286e-03  2.270457e+03
4701.6373 -9.945855e-03  2.243407e+03
4701.9749  2.121345e-02  2.298568e+03
4702.3126  2.947040e-02  2.312996e+03
4702.6503  6.848584e-04  2.261549e+03
4702.9880  1.230953e-02  2.281954e+03
4703.3257 -1.627531e-02  2.230851e+03
4703.6634 -4.971519e-02  2.171108e+03
4704.0011 -2.000461e-02  2.223654e+03
4704.3388 -8.408719e-03  2.243981e+03
4704.6765 -3.546014e-02  2.195580e+03
4705.0141  5.065257e-03  2.267337e+03
4705.3518  4.193040e-02  2.332580e+03
4705.6895  3.279775e-02  2.316023e+03
4706.0272 -6.668753e-03  2.245521e+03
4706.3649 -1.783216e-02  2.225340e+03
4706.7026 -4.142722e-03  2.249348e+03
4707.0403  4.586277e-03  2.264528e+03
4707.3780 -2.212020e-02  2.216691e+03
4707.7157 -2.821787e-02  2.205495e+03
4708.0534 -1.151237e-02  2.234842e+03
4708.3910  2.299637e-02  2.295841e+03
4708.7287  1.111620e-02  2.274345e+03
4709.0664  1.253112e-04  2.254425e+03
4709.4041  4.718324e-02  2.337722e+03
4709.7418  5.111160e-01  3.162304e+03
4710.0795  1.000000e+00  4.031249e+03
4710.4172  4.705110e-01  3.089309e+03
4710.7549  2.930061e-02  2.304342e+03
4711.0926  9.994950e-03  2.269604e+03
4711.4302  1.064763e-02  2.270350e+03
4711.7679  8.339417e-03  2.265826e+03
4712.1056 -3.335611e-02  2.191259e+03
4712.4433 -5.654765e-02  2.149590e+03
4712.7810 -4.260720e-02  2.173945e+03
4713.1187 -2.825487e-02  2.199027e+03
4713.4564 -1.817907e-02  2.216500e+03
4713.7941 -4.177254e-02  2.174097e+03
4714.1318 -3.883949e-02  2.178859e+03
4714.4695 -9.698195e-03  2.230221e+03
4714.8071 -5.207345e-03  2.237744e+03
4715.1448  1.176825e-02  2.267463e+03
4715.4825 -2.586259e-02  2.200076e+03
4715.8202 -5.972884e-02  2.139380e+03
4716.1579  3.831017e-03  2.251923e+03
4716.4956 -1.601583e-02  2.216147e+03
4716.8333 -2.611310e-02  2.197704e+03
4717.1710 -3.634889e-02  2.179011e+03
4717.5087 -4.814275e-02  2.157543e+03
4717.8463 -5.093408e-02  2.152081e+03
4718.1840 -1.689002e-02  2.212115e+03
4718.5217  2.803289e-02  2.291491e+03
4718.8594  4.271739e-02  2.317093e+03
4719.1971  3.122175e-02  2.296138e+03
4719.5348  3.752620e-03  2.246775e+03
4719.8725  1.639696e-02  2.268740e+03
4720.2102 -2.282656e-03  2.235000e+03
4720.5479 -4.413276e-03  2.230686e+03
4720.8856 -5.166424e-03  2.228817e+03
4721.2232 -1.131441e-02  2.217353e+03
4721.5609  1.501289e-02  2.263634e+03
4721.8986  1.201017e-02  2.257758e+03
4722.2363  5.245577e-03  2.245189e+03
4722.5740  1.703320e-02  2.265608e+03
4722.9117  1.471962e-02  2.260950e+03
4723.2494  3.892281e-02  2.303442e+03
4723.5871  2.490125e-02  2.277960e+03
4723.9248  1.803214e-03  2.236337e+03
4724.2624  1.574672e-02  2.260579e+03
4724.6001  6.249729e-03  2.243137e+03
4724.9378 -2.105787e-02  2.194023e+03
4725.2755 -6.888075e-03  2.218663e+03
4725.6132 -1.389317e-02  2.205648e+03
4725.9509 -3.210719e-02  2.172699e+03
4726.2886 -1.098404e-02  2.209700e+03
4726.6263 -7.329946e-03  2.215635e+03
4726.9640  5.680446e-03  2.238207e+03
4727.3017 -1.823840e-03  2.224299e+03
4727.6393 -1.977524e-02  2.191813e+03
4727.9770 -3.701578e-02  2.160590e+03
4728.3147 -9.801722e-04  2.224103e+03
4728.6524  4.763044e-02  2.309977e+03
4728.9901  1.879483e-02  2.258135e+03
4729.3278 -3.637914e-02  2.159457e+03
4729.6655  9.593407e-04  2.225286e+03
4730.0032  8.469284e-03  2.238073e+03
4730.3409 -4.495543e-03  2.214453e+03
4730.6786 -2.619008e-03  2.217224e+03
4731.0162 -1.645167e-03  2.218390e+03
4731.3539 -1.754668e-02  2.189548e+03
4731.6916 -3.333104e-02  2.160916e+03
4732.0293 -1.568886e-02  2.191724e+03
4732.3670 -7.262450e-04  2.217768e+03
4732.7047  3.717531e-02  2.284603e+03
4733.0424  3.200588e-03  2.223628e+03
4733.3801 -6.712385e-03  2.205442e+03
4733.7178  2.406477e-02  2.259612e+03
4734.0554  2.372337e-02  2.258449e+03
4734.3931  7.112937e-04  2.216974e+03
4734.7308 -4.207458e-02  2.140339e+03
4735.0685 -3.616254e-02  2.150301e+03
4735.4062  6.911051e-03  2.226346e+03
4735.7439  3.685699e-02  2.279049e+03
4736.0816  3.991213e-02  2.283938e+03
4736.4193  3.613272e-02  2.276675e+03
4736.7570 -1.454177e-02  2.186025e+03
4737.0947 -3.177862e-03  2.205696e+03
4737.4323 -1.191506e-02  2.189625e+03
4737.7700 -1.281950e-02  2.187485e+03
4738.1077 -3.268466e-02  2.151633e+03
4738.4454  4.701712e-04  2.210063e+03
4738.7831 -1.527198e-02  2.181549e+03
4739.1208 -6.599021e-02  2.090842e+03
4739.4585 -6.017483e-02  2.100668e+03
4739.7962 -1.638187e-02  2.178029e+03
4740.1339 -3.665020e-02  2.141480e+03
4740.4715 -1.040773e-01  2.021076e+03
4740.8092 -1.831413e-01  1.879984e+03
4741.1469 -1.663739e-01  1.909303e+03
4741.4846 -5.703735e-02  2.103235e+03
4741.8223  1.656984e-02  2.233636e+03
4742.1600  1.599597e-02  2.232132e+03
4742.4977  4.635672e-02  2.285641e+03
4742.8354  1.878688e-02  2.236141e+03
4743.1731 -1.474999e-04  2.202002e+03
4743.5108  1.536335e-02  2.229119e+03
4743.8484  3.139728e-02  2.257171e+03
4744.1861  1.487004e-02  2.227327e+03
4744.5238  2.746421e-02  2.249272e+03
4744.8615  2.636512e-02  2.246874e+03
4745.1992  2.087216e-02  2.236667e+03
4745.5369  1.267073e-02  2.221649e+03
4745.8746  9.518396e-03  2.215615e+03
4746.2123  5.290385e-02  2.292341e+03
4746.5500  3.009492e-02  2.251365e+03
4746.8876  1.534652e-02  2.224729e+03
4747.2253  4.679579e-02  2.280247e+03
4747.5630  4.125679e-02  2.269999e+03
4747.9007  2.510179e-02  2.240879e+03
4748.2384  3.560094e-02  2.259162e+03
4748.5761  1.988678e-02  2.230838e+03
4748.9138  1.473821e-02  2.221309e+03
4749.2515  3.532225e-02  2.257544e+03
4749.5892  3.813104e-02  2.262177e+03
4749.9269  4.256223e-02  2.269703e+03
4750.2645  1.987415e-02  2.229011e+03
4750.6022  3.476644e-02  2.255151e+03
4750.9399  1.217187e-02  2.214639e+03
4751.2776  2.006490e-02  2.228348e+03
4751.6153  4.283646e-02  2.268520e+03
4751.9530  3.612169e-02  2.256267e+03
4752.2907  2.040508e-02  2.228013e+03
4752.6284  2.475516e-02  2.235450e+03
4752.9661  2.795310e-02  2.240845e+03
4753.3038  2.853981e-02  2.241604e+03
4753.6414  6.251087e-03  2.201693e+03
4753.9791  2.365138e-02  2.232365e+03
4754.3168  4.143410e-02  2.263724e+03
4754.6545  3.476252e-02  2.251606e+03
4754.9922  1.226198e-02  2.211349e+03
4755.3299  3.443061e-02  2.250530e+03
4755.6676  4.941930e-02  2.276951e+03
4756.0053  3.443210e-03  2.194972e+03
4756.3430 -4.060218e-02  2.116434e+03
4756.6806 -4.670872e-02  2.105367e+03
4757.0183 -1.272747e-02  2.165592e+03
4757.3560  2.819201e-03  2.193044e+03
4757.6937 -3.175290e-02  2.131383e+03
4758.0314 -1.256824e-03  2.185434e+03
4758.3691  4.964165e-02  2.275773e+03
4758.7068  4.908474e-02  2.274622e+03
4759.0445  3.335549e-02  2.246498e+03
4759.3822  3.553614e-02  2.250230e+03
4759.7199  5.151826e-02  2.278512e+03
4760.0575  3.455260e-02  2.248214e+03
4760.3952 -1.492204e-02  2.160116e+03
4760.7329 -1.352397e-02  2.162489e+03
4761.0706  2.491152e-02  2.230729e+03
4761.4083 -7.597378e-03  2.172824e+03
4761.7460 -7.308132e-03  2.173248e+03
4762.0837 -8.359204e-03  2.171297e+03
4762.4214  5.876354e-03  2.196536e+03
4762.7591  6.000664e-02  2.292725e+03
4763.0967  4.363408e-04  2.186738e+03
4763.4344 -4.693527e-03  2.177565e+03
4763.7721  1.486766e-02  2.212306e+03
4764.1098  6.726727e-03  2.197794e+03
4764.4475 -2.362790e-02  2.143789e+03
4764.7852 -3.275249e-02  2.127544e+03
4765.1229 -2.352803e-02  2.143934e+03
4765.4606 -1.606353e-02  2.157202e+03
4765.7983 -3.952512e-02  2.115485e+03
4766.1360 -1.179283e-02  2.164809e+03
4766.4736 -1.676179e-02  2.155990e+03
4766.8113 -2.013354e-02  2.150018e+03
4767.1490 -1.185845e-03  2.183743e+03
4767.4867  1.650614e-02  2.215241e+03
4767.8244  1.939356e-02  2.220421e+03
4768.1621 -4.367273e-04  2.185211e+03
4768.4998  2.638640e-02  2.232968e+03
4768.8375  6.450930e-02  2.300824e+03
4769.1752  4.180422e-02  2.260522e+03
4769.5128  6.477031e-03  2.197782e+03
4769.8505 -8.636548e-03  2.170993e+03
4770.1882 -6.327762e-04  2.185317e+03
4770.5259 -1.203307e-02  2.165143e+03
4770.8636 -4.584686e-03  2.178492e+03
4771.2013 -4.005521e-04  2.186042e+03
4771.5390  2.541908e-03  2.191390e+03
4771.8767  2.327939e-02  2.228387e+03
4772.2144  5.905383e-02  2.292129e+03
4772.5521  3.558950e-02  2.250537e+03
4772.8897 -1.302983e-02  2.164219e+03
4773.2274 -2.592187e-02  2.141437e+03
4773.5651  2.828855e-03  2.192709e+03
4773.9028 -6.867585e-03  2.175620e+03
4774.2405  2.682244e-02  2.235685e+03
4774.5782  3.590547e-02  2.251998e+03
4774.9159  4.081557e-03  2.195574e+03
4775.2536 -4.116582e-03  2.181166e+03
4775.5913  5.901705e-03  2.199154e+03
4775.9290  2.832932e-02  2.239212e+03
4776.2666  4.158141e-02  2.262958e+03
4776.6043  1.385364e-02  2.213836e+03
4776.9420  6.971675e-03  2.201786e+03
4777.2797  2.555523e-02  2.235022e+03
4777.6174  3.993217e-03  2.196873e+03
4777.9551 -4.580521e-02  2.108516e+03
4778.2928 -3.917822e-02  2.120498e+03
4778.6305 -2.998080e-02  2.137052e+03
4778.9682 -2.933943e-02  2.138394e+03
4779.3058 -1.311611e-02  2.167445e+03
4779.6435  1.791617e-02  2.222831e+03
4779.9812 -1.847704e-02  2.158322e+03
4780.3189 -2.962006e-02  2.138713e+03
4780.6566 -2.501157e-02  2.147115e+03
4780.9943 -4.958369e-02  2.103627e+03
4781.3320 -1.327060e-02  2.168406e+03
4781.6697 -8.440983e-04  2.190709e+03
4782.0074 -1.106274e-02  2.172745e+03
4782.3451  1.550131e-02  2.220186e+03
4782.6827  1.841004e-02  2.225563e+03
4783.0204  1.948239e-02  2.227672e+03
4783.3581 -2.649163e-02  2.146122e+03
4783.6958 -3.565086e-02  2.130034e+03
4784.0335 -1.438227e-02  2.168051e+03
4784.3712  4.570487e-03  2.201947e+03
4784.7089 -1.361668e-02  2.169798e+03
4785.0466 -1.706582e-02  2.163853e+03
4785.3843 -9.560745e-03  2.177383e+03
4785.7219 -5.008180e-02  2.105509e+03
4786.0596 -3.472069e-02  2.133001e+03
4786.3973  2.257706e-03  2.198929e+03
4786.7350 -3.046395e-02  2.140910e+03
4787.0727 -1.947593e-02  2.160611e+03
4787.4104  1.600108e-02  2.223854e+03
4787.7481  2.169121e-02  2.234123e+03
4788.0858  1.861396e-02  2.228795e+03
4788.4235 -4.568283e-02  2.114600e+03
4788.7612 -4.723000e-02  2.111980e+03
4789.0988  3.450607e-04  2.196702e+03
4789.4365  4.867965e-04  2.197070e+03
4789.7742 -2.855637e-03  2.191235e+03
4790.1119  2.762633e-02  2.245538e+03
4790.4496  3.435667e-02  2.257597e+03
4790.7873 -1.125531e-02  2.176571e+03
4791.1250 -1.075880e-02  2.177526e+03
4791.4627  1.321238e-02  2.220214e+03
4791.8004  2.406170e-02  2.239558e+03
4792.1380  3.660510e-02  2.261904e+03
4792.4757  9.706646e-03  2.214103e+03
4792.8134  2.782506e-02  2.246340e+03
4793.1511  5.223018e-03  2.206155e+03
4793.4888  6.926812e-03  2.209179e+03
4793.8265  3.201404e-02  2.253771e+03
4794.1642 -1.687964e-02  2.166796e+03
4794.5019  1.759980e-02  2.228062e+03
4794.8396  5.573026e-02  2.295807e+03
4795.1773 -2.099946e-02  2.159292e+03
4795.5149 -1.297951e-02  2.173465e+03
4795.8526  3.766072e-02  2.263410e+03
4796.1903  1.957420e-03  2.199802e+03
4796.5280 -1.386214e-02  2.171536e+03
4796.8657 -3.098357e-02  2.140938e+03
4797.2034 -3.036835e-02  2.141863e+03
4797.5411 -1.086817e-02  2.176352e+03
4797.8788 -9.865016e-03  2.177931e+03
4798.2165 -3.230692e-02  2.137802e+03
4798.5541 -4.735712e-02  2.110798e+03
4798.8918 -3.820629e-03  2.187955e+03
4799.2295 -3.616009e-02  2.130168e+03
4799.5672 -2.679440e-02  2.146522e+03
4799.9049 -4.952915e-03  2.185040e+03
4800.2426 -5.442017e-02  2.096735e+03
4800.5803 -3.575235e-02  2.129567e+03
4800.9180 -1.465927e-02  2.166689e+03
4801.2557 -1.413869e-02  2.167208e+03
4801.5934 -1.604329e-02  2.163391e+03
4801.9310 -7.618723e-03  2.177918e+03
4802.2687 -1.521139e-02  2.163940e+03
4802.6064 -3.595239e-02  2.126557e+03
4802.9441 -4.276247e-02  2.113922e+03
4803.2818 -5.856526e-02  2.085271e+03
4803.6195 -1.748211e-02  2.157749e+03
4803.9572 -1.701780e-03  2.185208e+03
4804.2949 -2.159411e-02  2.149208e+03
4804.6326 -4.759824e-02  2.102312e+03
4804.9703 -2.727501e-02  2.137769e+03
4805.3079 -1.394191e-02  2.160769e+03
4805.6456 -3.826537e-02  2.116779e+03
4805.9833 -3.682354e-02  2.118577e+03
4806.3210 -3.333937e-02  2.123977e+03
4806.6587  2.223169e-03  2.186391e+03
4806.9964  1.494172e-02  2.208153e+03
4807.3341 -5.527374e-02  2.082411e+03
4807.6718 -5.734895e-02  2.077806e+03
4808.0095 -3.962568e-02  2.108376e+03
4808.3471  1.006896e-02  2.195766e+03
4808.6848  1.986727e-02  2.212180e+03
4809.0225 -1.054081e-02  2.157067e+03
4809.3602 -9.046990e-03  2.158649e+03
4809.6979 -1.034036e-02  2.155242e+03
4810.0356 -7.549725e-03  2.159064e+03
4810.3733 -6.240701e-03  2.160217e+03
4810.7110 -2.585924e-02  2.124123e+03
4811.0487 -3.614088e-02  2.104597e+03
4811.3864 -2.180080e-02  2.128818e+03
4811.7240 -7.617122e-03  2.152726e+03
4812.0617 -3.168032e-02  2.108587e+03
4812.3994 -4.475316e-02  2.083956e+03
4812.7371 -3.936461e-02  2.092116e+03
4813.0748  2.065688e-03  2.164329e+03
4813.4125  1.220435e-02  2.180862e+03
4813.7502  1.532793e-02  2.184883e+03
4814.0879 -1.103748e-02  2.136429e+03
4814.4256 -1.251472e-02  2.132193e+03
4814.7632 -2.615583e-03  2.148149e+03
4815.1009  3.693775e-02  2.216797e+03
4815.4386  6.576453e-02  2.266332e+03
4815.7763  2.696486e-02  2.195573e+03
4816.1140  6.871761e-03  2.158040e+03
4816.4517  5.584234e-03  2.153906e+03
4816.7894  1.817680e-02  2.174415e+03
4817.1271  2.066334e-02  2.176912e+03
4817.4648  2.699748e-02  2.186210e+03
4817.8025  1.240887e-02  2.158263e+03
4818.1401 -1.163048e-02  2.113469e+03
4818.4778 -1.178695e-02  2.111103e+03
4818.8155  5.122240e-02  2.221018e+03
4819.1532  3.675675e-02  2.193124e+03
4819.4909 -1.282406e-02  2.102746e+03
4819.8286  2.587335e-02  2.169303e+03
4820.1663 -2.337291e-02  2.079436e+03
4820.5040 -4.290913e-02  2.042357e+03
4820.8417 -1.129251e-02  2.096196e+03
4821.1793  9.852037e-03  2.131371e+03
4821.5170 -5.394671e-03  2.101792e+03
4821.8547 -3.293346e-02  2.050312e+03
4822.1924 -1.708779e-02  2.075937e+03
4822.5301 -1.407081e-02  2.078706e+03
4822.8678 -3.287468e-02  2.042630e+03
4823.2055 -3.999081e-02  2.027295e+03
4823.5432 -5.302723e-02  2.001389e+03
4823.8809 -7.231518e-02  1.964323e+03
4824.2186 -2.240490e-02  2.050264e+03
4824.5562  9.569710e-03  2.104268e+03
4824.8939  1.769301e-02  2.115816e+03
4825.2316 -8.736951e-03  2.065878e+03
4825.5693  1.945096e-02  2.113020e+03
4825.9070  3.716309e-02  2.141491e+03
4826.2447  4.159966e-02  2.146312e+03
4826.5824  1.906533e-02  2.103131e+03
4826.9201  3.257278e-02  2.123997e+03
4827.2578  3.341348e-02  2.122297e+03
4827.5955  8.380710e-03  2.074546e+03
4827.9331  6.819595e-03  2.068491e+03
4828.2708  3.124006e-02  2.108595e+03
4828.6085  2.629144e-02  2.096433e+03
4828.9462 -5.121372e-03  2.037170e+03
4829.2839  2.183385e-02  2.081658e+03
4829.6216  8.354187e-03  2.054203e+03
4829.9593  3.065939e-02  2.090340e+03
4830.2970  4.618841e-02  2.114388e+03
4830.6347  4.356607e-02  2.106119e+03
4830.9723  2.794202e-02  2.074691e+03
4831.3100  4.787470e-02  2.106451e+03
4831.6477  5.602234e-02  2.117217e+03
4831.9854  2.201969e-02  2.052992e+03
4832.3231  4.582720e-02  2.091528e+03
4832.6608  3.331884e-02  2.065449e+03
4832.9985  5.560461e-03  2.012216e+03
4833.3362 -3.639466e-03  1.991947e+03
4833.6739 -7.738562e-03  1.980713e+03
4834.0116  1.684617e-02  2.020450e+03
4834.3492  5.314313e-02  2.080978e+03
4834.6869  6.616275e-02  2.100081e+03
4835.0246  3.178277e-02  2.034864e+03
4835.3623  4.555277e-02  2.055234e+03
4835.7000  1.202898e-02  1.991474e+03
4836.0377  1.108995e-03  1.967877e+03
4836.3754  4.001600e-02  2.032853e+03
4836.7131  5.074329e-02  2.047688e+03
4837.0508  4.837871e-02  2.039215e+03
4837.3884  1.535610e-02  1.976196e+03
4837.7261  3.641786e-02  2.009323e+03
4838.0638  3.190180e-02  1.996941e+03
4838.4015  5.228506e-02  2.028809e+03
4838.7392  8.060610e-02  2.074767e+03
4839.0769  4.007718e-02  1.998271e+03
4839.4146  1.178230e-02  1.943507e+03
4839.7523  5.122599e-02  2.009173e+03
4840.0900 -3.265724e-03  1.907782e+03
4840.4277  7.115885e-03  1.921729e+03
4840.7653  4.283541e-02  1.980712e+03
4841.1030  6.301948e-03  1.911197e+03
4841.4407  5.617045e-03  1.905410e+03
4841.7784  2.452115e-02  1.934441e+03
4842.1161  6.316878e-02  1.998565e+03
4842.4538  3.375967e-02  1.941657e+03
4842.7915 -1.895567e-03  1.873629e+03
4843.1292  1.502157e-02  1.899075e+03
4843.4669  5.099235e-02  1.958392e+03
4843.8045  7.882502e-02  2.003229e+03
4844.1422  5.188990e-02  1.950669e+03
4844.4799  1.442091e-02  1.879373e+03
4844.8176  2.815565e-02  1.899122e+03
4845.1553  1.108339e-02  1.864087e+03
4845.4930 -1.871819e-03  1.836371e+03
4845.8307  3.156378e-02  1.891147e+03
4846.1684  5.495351e-03  1.840113e+03
4846.5061  2.440482e-04  1.826098e+03
4846.8438 -4.903699e-03  1.812272e+03
4847.1814 -1.764981e-02  1.784939e+03
4847.5191  1.979308e-02  1.846860e+03
4847.8568  2.844918e-02  1.857601e+03
4848.1945 -6.296592e-03  1.791174e+03
4848.5322 -3.058069e-02  1.743362e+03
4848.8699 -6.019726e-02  1.686080e+03
4849.2076 -3.306611e-02  1.729724e+03
4849.5453 -3.560774e-02  1.720619e+03
4849.8830 -5.082474e-02  1.688994e+03
4850.2207 -5.666509e-02  1.674062e+03
4850.5583 -3.800415e-02  1.702721e+03
4850.8960 -1.972540e-02  1.730724e+03
4851.2337 -3.740576e-02  1.694809e+03
4851.5714 -7.098322e-02  1.630654e+03
4851.9091 -6.657252e-02  1.634078e+03
4852.2468 -6.178026e-02  1.638213e+03
4852.5845 -7.687490e-02  1.607017e+03
4852.9222 -7.487634e-02  1.606251e+03
4853.2599 -1.024701e-01  1.552901e+03
4853.5975 -1.244744e-01  1.509529e+03
4853.9352 -1.132423e-01  1.525299e+03
4854.2729 -1.362410e-01  1.480242e+03
4854.6106 -1.747496e-01  1.407650e+03
4854.9483 -1.521735e-01  1.443726e+03
4855.2860 -1.739759e-01  1.400937e+03
4855.6237 -1.961194e-01  1.357592e+03
4855.9614 -2.289636e-01  1.295271e+03
4856.2991 -2.245517e-01  1.299255e+03
4856.6368 -2.064642e-01  1.327614e+03
4856.9744 -2.426662e-01  1.259494e+03
4857.3121 -2.885524e-01  1.174215e+03
4857.6498 -2.754860e-01  1.193829e+03
4857.9875 -2.785051e-01  1.184905e+03
4858.3252 -3.271875e-01  1.094850e+03
4858.6629 -3.262192e-01  1.093154e+03
4859.0006 -3.613631e-01  1.027315e+03
4859.3383 -3.642847e-01  1.018848e+03
4859.6760 -3.716510e-01  1.002553e+03
4860.0136 -3.928735e-01  9.616980e+02
4860.3513 -4.340644e-01  8.854152e+02
4860.6890 -4.613998e-01  8.338533e+02
4861.0267 -4.888533e-01  7.821660e+02
4861.3644 -5.072260e-01  7.467133e+02
4861.7021 -5.060991e-01  7.460242e+02
4862.0398 -4.927119e-01  7.672278e+02
4862.3775 -5.038221e-01  7.449634e+02
4862.7152 -4.972246e-01  7.542825e+02
4863.0529 -4.574620e-01  8.226736e+02
4863.3905 -4.274068e-01  8.739028e+02
4863.7282 -3.810406e-01  9.542384e+02
4864.0659 -3.543678e-01  9.996589e+02
4864.4036 -3.432996e-01  1.017437e+03
4864.7413 -3.362573e-01  1.028165e+03
4865.0790 -3.401202e-01  1.019611e+03
4865.4167 -3.033246e-01  1.083468e+03
4865.7544 -2.483937e-01  1.179688e+03
4866.0921 -2.611509e-01  1.155660e+03
4866.4297 -2.744440e-01  1.130798e+03
4866.7674 -2.663952e-01  1.144005e+03
4867.1051 -2.132483e-01  1.237529e+03
4867.4428 -1.793275e-01  1.296987e+03
4867.7805 -1.755658e-01  1.302942e+03
4868.1182 -1.814175e-01  1.291930e+03
4868.4559 -1.279736e-01  1.386486e+03
4868.7936 -7.657119e-02  1.477542e+03
4869.1313 -9.635323e-02  1.442150e+03
4869.4690 -7.984160e-02  1.471429e+03
4869.8066 -7.460777e-02  1.480789e+03
4870.1443 -7.796993e-02  1.475001e+03
4870.4820 -2.826842e-02  1.563708e+03
4870.8197 -1.724268e-02  1.583782e+03
4871.1574 -1.882265e-02  1.581580e+03
4871.4951 -1.103398e-03  1.613839e+03
4871.8328  4.238917e-03  1.624232e+03
4872.1705  3.426162e-04  1.618340e+03
4872.5082 -1.172765e-02  1.598059e+03
4872.8458  2.790011e-03  1.625203e+03
4873.1835 -2.384306e-02  1.579319e+03
4873.5212 -1.189053e-02  1.602196e+03
4873.8589 -4.908507e-03  1.616383e+03
4874.1966  2.942997e-02  1.679364e+03
4874.5343  6.767210e-02  1.749436e+03
4874.8720  6.550653e-02  1.747804e+03
4875.2097  6.649766e-02  1.751935e+03
4875.5474  8.937391e-02  1.795133e+03
4875.8851  4.439321e-02  1.717817e+03
4876.2227  4.456952e-02  1.720950e+03
4876.5604  6.956290e-02  1.768362e+03
4876.8981  7.440983e-03  1.661015e+03
4877.2358  4.753998e-04  1.651896e+03
4877.5735  6.018245e-02  1.761484e+03
4877.9112  6.088810e-02  1.766302e+03
4878.2489  9.621366e-02  1.832829e+03
4878.5866  7.750462e-02  1.803417e+03
4878.9243  6.202814e-02  1.779898e+03
4879.2620  9.444074e-02  1.841679e+03
4879.5996  9.622569e-02  1.849139e+03
4879.9373  8.608569e-02  1.835534e+03
4880.2750  7.339647e-02  1.817535e+03
4880.6127  9.388358e-02  1.858666e+03
4880.9504  1.225042e-01  1.914394e+03
4881.2881  1.358262e-01  1.943050e+03
4881.6258  1.413627e-01  1.957990e+03
4881.9635  1.155284e-01  1.917273e+03
4882.3012  6.212750e-02  1.827659e+03
4882.6388  4.997035e-02  1.811506e+03
4882.9765  6.023510e-02  1.835339e+03
4883.3142  5.072121e-02  1.824115e+03
4883.6519  5.774587e-02  1.842408e+03
4883.9896  5.317489e-02  1.840187e+03
4884.3273  5.559879e-02  1.850504e+03
4884.6650  6.506366e-02  1.873437e+03
4885.0027  8.263365e-02  1.910873e+03
4885.3404  7.061089e-02  1.895771e+03
4885.6781  2.714662e-02  1.824841e+03
4886.0157  4.144977e-02  1.856706e+03
4886.3534  8.233411e-02  1.935906e+03
4886.6911  8.708005e-02  1.950906e+03
4887.0288  2.834658e-02  1.853081e+03
4887.3665  2.766438e-02  1.858531e+03
4887.7042  4.787571e-02  1.901175e+03
4888.0419  6.488689e-02  1.938160e+03
4888.3796  5.598161e-04  1.830533e+03
4888.7173 -8.501710e-03  1.821197e+03
4889.0549  6.761151e-02  1.963326e+03
4889.3926  5.569685e-02  1.948921e+03
4889.7303  6.042179e-02  1.964094e+03
4890.0680 -3.043329e-03  1.857990e+03
4890.4057 -4.735909e-02  1.785905e+03
4890.7434 -1.149385e-02  1.856357e+03
4891.0811  1.752359e-02  1.914579e+03
4891.4188  2.864284e-02  1.940908e+03
4891.7565  2.070756e-02  1.933278e+03
4892.0942  3.081414e-02  1.957641e+03
4892.4318  7.928363e-03  1.923234e+03
4892.7695  1.836439e-02  1.947964e+03
4893.1072 -3.513702e-03  1.915103e+03
4893.4449 -3.037319e-02  1.873239e+03
4893.7826 -2.730905e-02  1.884427e+03
4894.1203 -1.642320e-02  1.909349e+03
4894.4580  2.138214e-02  1.981949e+03
4894.7957  2.267158e-02  1.989409e+03
4895.1334 -2.964572e-02  1.901321e+03
4895.4710 -5.695058e-03  1.948611e+03
4895.8087 -2.001951e-02  1.927579e+03
4896.1464 -6.441464e-02  1.852797e+03
4896.4841 -1.825895e-02  1.938735e+03
4896.8218  1.222181e-02  1.996480e+03
4897.1595 -7.570374e-03  1.964491e+03
4897.4972 -2.524792e-02  1.935901e+03
4897.8349 -1.260148e-02  1.960850e+03
4898.1726 -3.505696e-03  1.979081e+03
4898.5103 -1.613325e-02  1.958253e+03
4898.8479 -4.993384e-02  1.899323e+03
4899.1856 -8.360261e-02  1.840148e+03
4899.5233 -5.899132e-02  1.884104e+03
4899.8610 -4.941868e-02  1.900788e+03
4900.1987 -8.488721e-02  1.836823e+03
4900.5364 -6.766072e-02  1.865974e+03
4900.8741 -3.541395e-02  1.921221e+03
4901.2118 -6.492221e-02  1.866010e+03
4901.5495 -4.203454e-02  1.903297e+03
4901.8872 -3.768265e-02  1.906917e+03
4902.2248 -2.956393e-02  1.916498e+03
4902.5625 -1.284508e-02  1.940601e+03
4902.9002 -3.914341e-03  1.950050e+03
4903.2379 -5.271426e-03  1.940365e+03
4903.5756 -6.396973e-03  1.930216e+03
4903.9133 -4.169118e-03  1.925117e+03
4904.2510  4.274977e-02  1.998538e+03
4904.5887  4.437082e-02  1.990420e+03
4904.9264 -1.451149e-02  1.873685e+03
4905.2640  2.761422e-02  1.935493e+03
4905.6017  3.401140e-02  1.932655e+03
4905.9394  2.356660e-02  1.898712e+03
4906.2771  3.443023e-02  1.901461e+03
4906.6148  6.788667e-02  1.943138e+03
4906.9525  4.730906e-02  1.887439e+03
4907.2902  4.037622e-02  1.854662e+03
4907.6279  8.465298e-02  1.911558e+03
4907.9656  1.524329e-01  2.008808e+03
4908.3033  1.574093e-01  1.992889e+03
4908.6409  1.738954e-01  1.995892e+03
4908.9786  1.767634e-01  1.973082e+03
4909.3163  1.599238e-01  1.913573e+03
4909.6540  1.573893e-01  1.877792e+03
4909.9917  2.040490e-01  1.927719e+03
4910.3294  2.256402e-01  1.931240e+03
4910.6671  2.434587e-01  1.926163e+03
4911.0048  2.729018e-01  1.939805e+03
4911.3425  2.690445e-01  1.892216e+03
4911.6801  3.044897e-01  1.912432e+03
4912.0178  3.319334e-01  1.916272e+03
4912.3555  3.478855e-01  1.897459e+03
4912.6932  3.920256e-01  1.926482e+03
4913.0309  4.553244e-01  1.987213e+03
4913.3686  6.279260e-01  2.239873e+03
4913.7063  7.520632e-01  2.403844e+03
4914.0440 -8.169680e-01 -4.455768e+02
4914.3817 -6.867596e-01 -2.760612e+02
4914.7194 -4.950897e-01  0.000000e+00
4915.0570 -4.570760e-01  0.000000e+00
4915.3947 -4.174244e-01  0.000000e+00
4915.7324 -3.760861e-01  0.000000e+00
4916.0701 -3.330118e-01  0.000000e+00
4916.4078 -2.881506e-01  0.000000e+00
4916.7455 -2.414507e-01  0.000000e+00
4917.0832 -1.928592e-01  0.000000e+00
4917.4209 -1.423219e-01  0.000000e+00
4917.7586 -8.978356e-02  0.000000e+00
