# Wavelength Flux(Normalised) Flux(Original)
5987.0880  5.030829e-02  1.815778e+03
5987.4884  2.272621e-03  1.770059e+03
5987.8888  6.674002e-02  1.847245e+03
5988.2892  7.589829e-02  1.863544e+03
5988.6897  4.430829e-02  1.834917e+03
5989.0901  3.187221e-02  1.826985e+03
5989.4905  2.841748e-02  1.828617e+03
5989.8909 -3.175889e-02  1.767861e+03
5990.2914 -2.983851e-02  1.774866e+03
5990.6918  5.435200e-04  1.812803e+03
5991.0922  1.433047e-02  1.832332e+03
5991.4926  1.340884e-01  1.967707e+03
5991.8930  1.343099e-01  1.971943e+03
5992.2935  2.059666e-02  1.851182e+03
5992.6939 -1.537155e-02  1.815380e+03
5993.0943 -3.416158e-02  1.798205e+03
5993.4947 -1.118746e-02  1.826595e+03
5993.8951  4.057283e-02  1.886344e+03
5994.2956  2.470937e-02  1.871861e+03
5994.6960  2.216514e-02  1.871812e+03
5995.0964  3.547896e-02  1.888982e+03
5995.4968  1.634073e-02  1.870468e+03
5995.8973 -1.712330e-02  1.836127e+03
5996.2977 -4.324879e-02  1.809696e+03
5996.6981 -1.153013e-01  1.732841e+03
5997.0985 -6.797506e-02  1.786623e+03
5997.4989 -5.273036e-02  1.805157e+03
5997.8994 -1.452999e-02  1.848731e+03
5998.2998 -1.183375e-02  1.853319e+03
5998.7002 -8.950731e-03  1.858019e+03
5999.1006  2.025115e-02  1.891458e+03
5999.5010 -2.813042e-02  1.839838e+03
5999.9015 -2.989443e-02  1.839200e+03
6000.3019  1.105431e-02  1.885271e+03
6000.7023 -1.458206e-02  1.858345e+03
6001.1027  2.813152e-02  1.906217e+03
6001.5031 -2.078479e-02  1.853667e+03
6001.9036 -7.236233e-02  1.798148e+03
6002.3040 -3.890954e-02  1.835708e+03
6002.7044 -3.296378e-02  1.843093e+03
6003.1048 -3.876301e-02  1.837569e+03
6003.5053  2.445184e-02  1.907594e+03
6003.9057  1.625057e-02  1.899360e+03
6004.3061 -8.348904e-02  1.790831e+03
6004.7065 -3.124066e-02  1.848741e+03
6005.1069  7.248238e-02  1.963002e+03
6005.5074 -4.062062e-02  1.839751e+03
6005.9078  1.298162e-02  1.899067e+03
6006.3082  8.550644e-03  1.894800e+03
6006.7086 -3.056973e-02  1.852520e+03
6007.1090 -4.066806e-02  1.842013e+03
6007.5095 -3.891074e-02  1.844478e+03
6007.9099 -6.483132e-02  1.816617e+03
6008.3103 -3.451010e-02  1.850348e+03
6008.7107  4.404683e-02  1.936905e+03
6009.1112  4.371725e-02  1.937054e+03
6009.5116  3.366116e-02  1.926547e+03
6009.9120  3.815884e-03  1.894363e+03
6010.3124 -6.173702e-02  1.823071e+03
6010.7128 -6.748081e-02  1.817288e+03
6011.1133 -4.105359e-02  1.846746e+03
6011.5137 -6.564194e-02  1.820332e+03
6011.9141 -8.880624e-02  1.795484e+03
6012.3145 -4.527736e-02  1.843692e+03
6012.7149  3.992705e-02  1.937556e+03
6013.1154  2.200765e-03  1.896785e+03
6013.5158  3.799302e-02  1.936549e+03
6013.9162  4.136174e-02  1.940812e+03
6014.3166 -6.746606e-02  1.822201e+03
6014.7171 -4.248888e-02  1.850159e+03
6015.1175 -6.052056e-02  1.831024e+03
6015.5179 -3.558922e-02  1.858961e+03
6015.9183  2.983260e-04  1.898915e+03
6016.3187  7.358426e-02  1.979848e+03
6016.7192  1.372648e-01  2.050277e+03
6017.1196  7.556656e-02  1.983399e+03
6017.5200  7.063236e-02  1.978712e+03
6017.9204  7.913975e-02  1.988767e+03
6018.3208  1.037820e-01  2.016513e+03
6018.7213  1.870524e-02  1.924105e+03
6019.1217  8.750250e-02  2.000253e+03
6019.5221  3.044028e-02  1.938570e+03
6019.9225  4.512651e-02  1.955492e+03
6020.3229 -2.779695e-03  1.903878e+03
6020.7234 -4.150708e-02  1.862339e+03
6021.1238 -6.137773e-02  1.841475e+03
6021.5242 -5.255070e-02  1.852064e+03
6021.9246  2.745070e-02  1.940631e+03
6022.3251  3.514397e-02  1.950021e+03
6022.7255 -1.489705e-02  1.896197e+03
6023.1259  7.531474e-02  1.996011e+03
6023.5263 -7.214115e-04  1.913758e+03
6023.9267 -8.162954e-02  1.826190e+03
6024.3272  5.031255e-02  1.971776e+03
6024.7276  8.154744e-02  2.007079e+03
6025.1280  1.250446e-01  2.055834e+03
6025.5284  1.693898e-01  2.105539e+03
6025.9288  1.419256e-01  2.076612e+03
6026.3293  6.011508e-02  1.988182e+03
6026.7297 -1.709367e-02  1.904812e+03
6027.1301  5.816400e-03  1.931121e+03
6027.5305 -7.636578e-03  1.917623e+03
6027.9310  1.274178e-02  1.941198e+03
6028.3314 -6.075308e-02  1.861976e+03
6028.7318  2.907857e-02  1.961662e+03
6029.1322  3.033075e-02  1.964346e+03
6029.5326  3.418338e-02  1.969898e+03
6029.9331 -2.038237e-02  1.911483e+03
6030.3335 -3.327395e-02  1.898731e+03
6030.7339 -1.696831e-02  1.917976e+03
6031.1343 -7.024547e-02  1.861026e+03
6031.5347 -1.492893e-01  1.775870e+03
6031.9352 -3.277766e-02  1.904920e+03
6032.3356  8.311335e-02  2.033307e+03
6032.7360  4.755693e-02  1.995831e+03
6033.1364  7.742193e-02  2.030026e+03
6033.5369 -5.930950e-02  1.881765e+03
6033.9373  1.181854e-02  1.961184e+03
6034.3377  8.650237e-03  1.959242e+03
6034.7381 -1.888852e-02  1.930622e+03
6035.1385 -1.288061e-02  1.938758e+03
6035.5390 -4.154302e-02  1.908933e+03
6035.9394 -3.537423e-02  1.917271e+03
6036.3398  5.217338e-02  2.014754e+03
6036.7402  3.490375e-02  1.997445e+03
6037.1406  6.316560e-02  2.030017e+03
6037.5411  8.984353e-02  2.060865e+03
6037.9415 -1.475010e-03  1.962484e+03
6038.3419  1.081091e-01  2.084159e+03
6038.7423  2.058571e-02  1.989954e+03
6039.1428 -4.864489e-02  1.915796e+03
6039.5432 -2.069482e-03  1.968486e+03
6039.9436  3.997649e-02  2.016225e+03
6040.3440  5.764885e-02  2.037275e+03
6040.7444  1.655853e-02  1.993972e+03
6041.1449 -6.823166e-02  1.902812e+03
6041.5453 -5.599903e-02  1.917926e+03
6041.9457  5.118760e-02  2.037050e+03
6042.3461  4.955596e-02  2.036992e+03
6042.7465 -3.556109e-02  1.945500e+03
6043.1470 -4.216518e-02  1.940007e+03
6043.5474 -1.033949e-02  1.976611e+03
6043.9478  3.012195e-03  1.992985e+03
6044.3482 -4.625896e-03  1.986374e+03
6044.7486 -3.951608e-03  1.988871e+03
6045.1491  5.470716e-03  2.000954e+03
6045.5495  1.328887e-02  2.011283e+03
6045.9499  8.187924e-03  2.007464e+03
6046.3503 -2.171934e-02  1.976478e+03
6046.7508  2.163490e-02  2.025737e+03
6047.1512  1.673242e-03  2.005648e+03
6047.5516 -3.271390e-03  2.002009e+03
6047.9520  5.348321e-03  2.013228e+03
6048.3524 -2.434236e-02  1.982487e+03
6048.7529 -1.276750e-02  1.996944e+03
6049.1533 -1.621173e-02  1.994951e+03
6049.5537 -4.974423e-02  1.960003e+03
6049.9541 -1.456932e-03  2.014670e+03
6050.3545  2.216482e-02  2.042321e+03
6050.7550  2.726478e-02  2.049685e+03
6051.1554 -4.189871e-02  1.975707e+03
6051.5558  4.298198e-02  2.070450e+03
6051.9562  6.061297e-02  2.091534e+03
6052.3567  1.112445e-02  2.039101e+03
6052.7571 -5.918042e-03  2.022204e+03
6053.1575 -2.429686e-02  2.003840e+03
6053.5579 -4.899060e-02  1.978556e+03
6053.9583 -2.984194e-02  2.001290e+03
6054.3588 -2.911790e-02  2.003840e+03
6054.7592  1.092707e-02  2.049455e+03
6055.1596  8.116298e-03  2.048126e+03
6055.5600 -1.947357e-03  2.038849e+03
6055.9604  2.767116e-02  2.073032e+03
6056.3609  6.597036e-02  2.116719e+03
6056.7613 -3.858741e-02  2.003931e+03
6057.1617  1.481693e-02  2.064153e+03
6057.5621  3.413909e-02  2.087040e+03
6057.9626  3.119556e-02  2.085534e+03
6058.3630 -2.009203e-03  2.050879e+03
6058.7634 -5.919547e-02  1.989952e+03
6059.1638 -8.415522e-02  1.964316e+03
6059.5642 -5.164364e-02  2.001623e+03
6059.9647 -9.908012e-03  2.049026e+03
6060.3651 -7.091428e-02  1.983892e+03
6060.7655 -2.048748e-03  2.060999e+03
6061.1659 -4.872744e-02  2.011545e+03
6061.5663 -5.224814e-02  2.009355e+03
6061.9668 -5.686871e-03  2.062013e+03
6062.3672  1.004275e-02  2.080896e+03
6062.7676 -5.116775e-02  2.015500e+03
6063.1680 -3.645173e-02  2.033258e+03
6063.5684 -1.957091e-02  2.053381e+03
6063.9689 -7.319225e-02  1.996277e+03
6064.3693 -9.891290e-02  1.969725e+03
6064.7697 -5.090199e-02  2.023923e+03
6065.1701 -1.231709e-02  2.067790e+03
6065.5706  2.372861e-02  2.108869e+03
6065.9710 -1.399784e-02  2.069138e+03
6066.3714 -4.867726e-02  2.032738e+03
6066.7718 -3.030200e-03  2.084311e+03
6067.1722  5.942366e-02  2.154285e+03
6067.5727  3.979042e-02  2.134343e+03
6067.9731  6.549942e-02  2.164056e+03
6068.3735  5.569480e-02  2.154864e+03
6068.7739 -3.281251e-02  2.059462e+03
6069.1743  1.465432e-02  2.112983e+03
6069.5748  1.744970e-02  2.117569e+03
6069.9752 -2.361657e-02  2.074107e+03
6070.3756 -4.527619e-03  2.096524e+03
6070.7760 -3.516462e-02  2.064469e+03
6071.1765  4.958092e-02  2.158784e+03
6071.5769  5.710275e-02  2.168509e+03
6071.9773 -9.493713e-03  2.097046e+03
6072.3777 -7.616322e-03  2.100573e+03
6072.7781 -2.032523e-02  2.088118e+03
6073.1786 -3.834911e-02  2.069833e+03
6073.5790  8.231134e-04  2.114187e+03
6073.9794 -6.170350e-03  2.107969e+03
6074.3798  2.395907e-02  2.142404e+03
6074.7802 -4.435673e-02  2.069006e+03
6075.1807 -3.275089e-02  2.083137e+03
6075.5811  8.364966e-03  2.129583e+03
6075.9815  1.543075e-02  2.138728e+03
6076.3819  1.408005e-02  2.138647e+03
6076.7824  5.972765e-03  2.131158e+03
6077.1828 -3.864959e-02  2.083668e+03
6077.5832 -3.644919e-02  2.087456e+03
6077.9836 -2.638613e-02  2.099848e+03
6078.3840 -2.420977e-02  2.103595e+03
6078.7845  3.794168e-02  2.173026e+03
6079.1849  1.205834e-01  2.264892e+03
6079.5853  8.777057e-02  2.230296e+03
6079.9857  6.302983e-02  2.204535e+03
6080.3861 -2.731753e-02  2.106909e+03
6080.7866 -4.979367e-03  2.132700e+03
6081.1870 -2.823079e-02  2.108551e+03
6081.5874  1.872087e-02  2.161288e+03
6081.9878  6.528386e-03  2.149239e+03
6082.3882  9.335774e-03  2.153614e+03
6082.7887 -2.446114e-02  2.117890e+03
6083.1891 -2.929894e-02  2.113878e+03
6083.5895 -2.861822e-02  2.115906e+03
6083.9899 -5.141205e-02  2.092216e+03
6084.3904 -3.709487e-02  2.109168e+03
6084.7908 -8.324844e-02  2.059882e+03
6085.1912 -1.794212e-01  1.955804e+03
6085.5916 -4.605556e-02  2.103132e+03
6085.9920 -5.799666e-03  2.148473e+03
6086.3925 -9.738203e-03  2.145403e+03
6086.7929  7.548800e-04  2.158135e+03
6087.1933 -1.678721e-02  2.140156e+03
6087.5937 -5.546466e-02  2.099022e+03
6087.9941 -7.608305e-02  2.077664e+03
6088.3946 -7.465434e-02  2.080449e+03
6088.7950  2.978201e-02  2.196052e+03
6089.1954  4.070681e-02  2.209229e+03
6089.5958 -1.281261e-02  2.151817e+03
6089.9963  1.231131e-02  2.180538e+03
6090.3967 -3.836576e-02  2.126230e+03
6090.7971 -9.011184e-02  2.070749e+03
6091.1975 -1.438146e-02  2.154886e+03
6091.5979  4.897907e-02  2.225471e+03
6091.9984  3.612227e-02  2.212573e+03
6092.3988  5.895521e-03  2.180646e+03
6092.7992 -9.367893e-03  2.165105e+03
6093.1996 -2.284688e-02  2.151515e+03
6093.6000  6.919642e-03  2.185289e+03
6094.0005 -7.172425e-03  2.171021e+03
6094.4009  4.213778e-02  2.226194e+03
6094.8013 -3.747628e-03  2.177098e+03
6095.2017 -6.477088e-02  2.111419e+03
6095.6022 -3.235755e-02  2.148077e+03
6096.0026 -2.524321e-02  2.157022e+03
6096.4030 -4.552701e-04  2.185323e+03
6096.8034 -2.136889e-02  2.163566e+03
6097.2038  2.091312e-02  2.211023e+03
6097.6043  7.112408e-02  2.267163e+03
6098.0047  7.652125e-02  2.274217e+03
6098.4051  6.339058e-02  2.260976e+03
6098.8055  3.104784e-03  2.196085e+03
6099.2059 -3.292425e-02  2.157760e+03
6099.6064 -3.313762e-02  2.158662e+03
6100.0068 -8.908364e-02  2.098519e+03
6100.4072 -6.778398e-02  2.122981e+03
6100.8076 -4.383997e-02  2.150338e+03
6101.2080  1.019512e-01  2.311151e+03
6101.6085  7.630976e-02  2.284195e+03
6102.0089  6.421741e-02  2.272079e+03
6102.4093  2.268331e-02  2.227714e+03
6102.8097 -3.454608e-02  2.166158e+03
6103.2102 -1.646534e-04  2.204941e+03
6103.6106  8.464228e-03  2.215518e+03
6104.0110 -2.652684e-02  2.178317e+03
6104.4114 -3.694397e-02  2.168031e+03
6104.8118 -6.805182e-02  2.135083e+03
6105.2123 -1.944168e-03  2.208613e+03
6105.6127 -3.100314e-02  2.177909e+03
6106.0131 -7.108267e-03  2.205204e+03
6106.4135 -8.038338e-03  2.205308e+03
6106.8139  3.118451e-02  2.249392e+03
6107.2144  5.092075e-02  2.272132e+03
6107.6148  2.155655e-02  2.241093e+03
6108.0152 -1.924476e-02  2.197528e+03
6108.4156 -5.266305e-02  2.162050e+03
6108.8161 -6.642610e-02  2.148100e+03
6109.2165 -7.749341e-02  2.137104e+03
6109.6169 -1.593872e-02  2.205649e+03
6110.0173 -1.373923e-02  2.209185e+03
6110.4177  6.183021e-02  2.293083e+03
6110.8182  7.223484e-02  2.305607e+03
6111.2186  4.730928e-02  2.279435e+03
6111.6190 -1.782428e-02  2.209225e+03
6112.0194 -6.246402e-03  2.223037e+03
6112.4198  1.165867e-02  2.243780e+03
6112.8203  2.113393e-02  2.255292e+03
6113.2207  9.568018e-03  2.243758e+03
6113.6211  3.245616e-02  2.269962e+03
6114.0215  1.475695e-03  2.237167e+03
6114.4220  3.248930e-02  2.272274e+03
6114.8224 -6.567164e-02  2.165899e+03
6115.2228 -5.305110e-02  2.180863e+03
6115.6232  8.808334e-02  2.336588e+03
6116.0236  5.379600e-02  2.300178e+03
6116.4241  1.101980e-02  2.254471e+03
6116.8245 -1.593413e-02  2.226096e+03
6117.2249  4.325371e-02  2.292073e+03
6117.6253 -2.786718e-02  2.215326e+03
6118.0257 -8.740149e-02  2.151271e+03
6118.4262  2.118359e-02  2.271357e+03
6118.8266  6.998467e-02  2.325964e+03
6119.2270  5.436762e-03  2.256424e+03
6119.6274 -5.180350e-02  2.194889e+03
6120.0279 -1.648377e-02  2.234736e+03
6120.4283  5.366137e-02  2.312729e+03
6120.8287  1.552389e-01  2.425151e+03
6121.2291  3.409258e-02  2.293628e+03
6121.6295 -1.039580e-03  2.256318e+03
6122.0300 -9.118089e-03  2.248642e+03
6122.4304  5.458818e-02  2.319592e+03
6122.8308  8.253717e-02  2.351380e+03
6123.2312  8.052496e-02  2.350354e+03
6123.6316  9.206297e-02  2.364172e+03
6124.0321  7.156098e-02  2.342899e+03
6124.4325  7.995793e-02  2.353281e+03
6124.8329  4.941762e-02  2.321017e+03
6125.2333  3.900811e-03  2.272352e+03
6125.6337  1.020407e-02  2.280447e+03
6126.0342  1.424510e-02  2.286066e+03
6126.4346  6.844803e-02  2.346629e+03
6126.8350  1.046468e-01  2.387475e+03
6127.2354  1.456834e-02  2.290013e+03
6127.6359 -3.155398e-02  2.240698e+03
6128.0363  3.763450e-02  2.317684e+03
6128.4367  1.014029e-01  2.388735e+03
6128.8371  3.827958e-02  2.320806e+03
6129.2375 -2.643014e-02  2.251142e+03
6129.6380 -2.727398e-02  2.251431e+03
6130.0384  1.477570e-02  2.298703e+03
6130.4388 -1.070433e-02  2.272012e+03
6130.8392 -2.947303e-02  2.252675e+03
6131.2396  5.957605e-02  2.351432e+03
6131.6401  3.533492e-02  2.326105e+03
6132.0405  4.624869e-02  2.339285e+03
6132.4409  4.274859e-02  2.336680e+03
6132.8413 -1.691766e-02  2.272559e+03
6133.2418 -1.200111e-02  2.279177e+03
6133.6422  2.137020e-02  2.316963e+03
6134.0426  4.856524e-02  2.347987e+03
6134.4430  7.190219e-02  2.374787e+03
6134.8434  6.668787e-02  2.370317e+03
6135.2439  4.441217e-02  2.347162e+03
6135.6443  6.791587e-02  2.374150e+03
6136.0447  3.204580e-02  2.336109e+03
6136.4451 -2.432933e-03  2.299594e+03
6136.8455 -3.717355e-02  2.262795e+03
6137.2460 -1.499252e-02  2.288342e+03
6137.6464 -1.219446e-02  2.292662e+03
6138.0468  3.701590e-03  2.311329e+03
6138.4472  1.800357e-02  2.328253e+03
6138.8477  2.953526e-02  2.342144e+03
6139.2481  2.063176e-02  2.333654e+03
6139.6485  5.584405e-04  2.312932e+03
6140.0489 -2.388975e-02  2.287419e+03
6140.4493  2.523310e-02  2.342490e+03
6140.8498  4.744851e-02  2.368091e+03
6141.2502  1.070140e-01  2.434603e+03
6141.6506  1.238216e-01  2.454284e+03
6142.0510  1.390709e-01  2.472260e+03
6142.4514  7.809908e-02  2.406753e+03
6142.8519  3.333910e-02  2.359005e+03
6143.2523 -3.262497e-02  2.288033e+03
6143.6527 -1.451508e-02  2.309148e+03
6144.0531  1.595750e-02  2.343805e+03
6144.4535  1.858274e-02  2.347962e+03
6144.8540  5.285592e-02  2.386784e+03
6145.2544  9.543886e-03  2.340629e+03
6145.6548 -1.271775e-02  2.317532e+03
6146.0552 -1.077623e-02  2.320945e+03
6146.4557  1.318762e-02  2.348480e+03
6146.8561 -8.918364e-02  2.237643e+03
6147.2565  5.105947e-02  2.392539e+03
6147.6569  1.059029e-01  2.453898e+03
6148.0573  7.809421e-02  2.424731e+03
6148.4578  4.964010e-02  2.394858e+03
6148.8582  8.850320e-02  2.438718e+03
6149.2586  1.334981e-01  2.489294e+03
6149.6590  6.497317e-02  2.415534e+03
6150.0594 -9.185962e-03  2.335604e+03
6150.4599 -1.860332e-02  2.326585e+03
6150.8603 -6.528495e-02  2.276752e+03
6151.2607 -6.792466e-02  2.275158e+03
6151.6611 -2.098934e-02  2.327863e+03
6152.0616  8.213052e-02  2.442106e+03
6152.4620 -1.357519e-02  2.338580e+03
6152.8624 -7.454338e-02  2.273101e+03
6153.2628 -7.879920e-03  2.347415e+03
6153.6632 -9.367611e-03  2.347085e+03
6154.0637 -1.724070e-02  2.339761e+03
6154.4641  8.490237e-03  2.369243e+03
6154.8645  5.777113e-03  2.367571e+03
6155.2649  9.423821e-04  2.363575e+03
6155.6653  4.772279e-03  2.369069e+03
6156.0658 -2.098590e-02  2.342156e+03
6156.4662 -8.673736e-02  2.271439e+03
6156.8666  9.787354e-02  2.474940e+03
6157.2670  8.747458e-02  2.464849e+03
6157.6675  4.490141e-02  2.419518e+03
6158.0679  2.228330e-02  2.396043e+03
6158.4683  5.135253e-02  2.429180e+03
6158.8687  4.718376e-02  2.425912e+03
6159.2691  1.315355e-02  2.389937e+03
6159.6696 -5.387495e-02  2.317818e+03
6160.0700 -8.507113e-02  2.284945e+03
6160.4704 -5.754789e-02  2.316387e+03
6160.8708  2.375486e-02  2.406731e+03
6161.2712  1.135726e-01  2.506402e+03
6161.6717 -1.743672e-02  2.364203e+03
6162.0721 -3.957058e-02  2.341252e+03
6162.4725 -4.938617e-02  2.331793e+03
6162.8729 -8.646089e-02  2.292477e+03
6163.2733 -8.048271e-02  2.300315e+03
6163.6738 -1.655648e-02  2.371622e+03
6164.0742  5.257276e-02  2.448626e+03
6164.4746  3.908284e-02  2.435138e+03
6164.8750 -2.335205e-02  2.368040e+03
6165.2755 -5.737313e-02  2.332062e+03
6165.6759 -3.715433e-02  2.355490e+03
6166.0763  8.797762e-03  2.407104e+03
6166.4767  2.148591e-02  2.422282e+03
6166.8771 -6.657386e-02  2.327111e+03
6167.2776 -5.471022e-02  2.341383e+03
6167.6780 -1.271336e-01  2.263336e+03
6168.0784 -3.237976e-02  2.368394e+03
6168.4788 -1.750121e-02  2.385964e+03
6168.8792 -6.354818e-02  2.336802e+03
6169.2797 -4.665891e-02  2.356572e+03
6169.6801 -1.302884e-01  2.266243e+03
6170.0805 -1.074837e-01  2.292488e+03
6170.4809 -5.714155e-02  2.348893e+03
6170.8814 -3.106178e-02  2.378722e+03
6171.2818 -3.548822e-02  2.375137e+03
6171.6822 -2.012243e-03  2.413063e+03
6172.0826  7.978638e-02  2.503915e+03
6172.4830 -5.650954e-03  2.411594e+03
6172.8835 -2.353144e-02  2.393265e+03
6173.2839 -2.727198e-02  2.390421e+03
6173.6843 -5.911345e-02  2.356797e+03
6174.0847 -1.005543e-01  2.312656e+03
6174.4851 -4.645991e-02  2.373152e+03
6174.8856 -4.544085e-02  2.375514e+03
6175.2860 -7.347862e-02  2.346047e+03
6175.6864 -4.674673e-02  2.376567e+03
6176.0868 -5.540648e-02  2.368321e+03
6176.4873 -7.911320e-02  2.343592e+03
6176.8877 -6.083802e-02  2.364843e+03
6177.2881 -6.664216e-02  2.359718e+03
6177.6885 -3.590695e-02  2.394612e+03
6178.0889 -5.601029e-02  2.373821e+03
6178.4894 -7.597535e-02  2.353179e+03
6178.8898 -2.035336e-02  2.415324e+03
6179.2902  4.439751e-03  2.443700e+03
6179.6906 -1.307698e-02  2.425732e+03
6180.0910  1.509610e-02  2.457806e+03
6180.4915 -2.541072e-02  2.414653e+03
6180.8919 -1.593886e-02  2.426238e+03
6181.2923  4.015370e-02  2.488884e+03
6181.6927  2.846960e-02  2.477293e+03
6182.0931 -4.580334e-02  2.397146e+03
6182.4936 -7.845566e-02  2.362584e+03
6182.8940 -8.539200e-02  2.356185e+03
6183.2944 -6.605377e-02  2.378562e+03
6183.6948 -1.343468e-01  2.304955e+03
6184.0953  3.793723e-03  2.457450e+03
6184.4957  4.419667e-02  2.502891e+03
6184.8961 -2.649599e-02  2.426648e+03
6185.2965 -7.674725e-03  2.448446e+03
6185.6969 -4.908924e-02  2.404266e+03
6186.0974 -5.010453e-02  2.404332e+03
6186.4978 -5.292113e-02  2.402422e+03
6186.8982  5.804059e-02  2.525129e+03
6187.2986 -2.381048e-01  2.201936e+03
6187.6990 -6.039582e-01  1.802389e+03
6188.0995  7.316758e-03  2.473074e+03
6188.4999 -7.437318e-02  2.384763e+03
6188.9003 -6.673435e-02  2.394289e+03
6189.3007  4.735072e-02  2.520401e+03
6189.7012 -3.535527e-02  2.430969e+03
6190.1016 -1.324462e-01  2.325778e+03
6190.5020 -9.861945e-02  2.363977e+03
6190.9024 -4.791107e-02  2.420663e+03
6191.3028  1.686636e-02  2.492756e+03
6191.7033 -3.243663e-02  2.439896e+03
6192.1037 -7.736968e-02  2.391820e+03
6192.5041 -1.200475e-02  2.464548e+03
6192.9045  4.837696e-02  2.531816e+03
6193.3049  7.653246e-02  2.563785e+03
6193.7054  4.154401e-02  2.526590e+03
6194.1058 -2.810207e-02  2.451433e+03
6194.5062  7.857040e-03  2.491940e+03
6194.9066 -7.693493e-03  2.476028e+03
6195.3071 -1.586808e-02  2.468191e+03
6195.7075 -5.082880e-02  2.431014e+03
6196.1079 -7.656373e-02  2.403939e+03
6196.5083  8.949004e-03  2.498709e+03
6196.9087 -2.440715e-02  2.463281e+03
6197.3092 -4.030738e-02  2.446970e+03
6197.7096 -2.981383e-01  2.165673e+03
6198.1100 -5.134270e-01  1.930970e+03
6198.5104 -4.666331e-01  1.983319e+03
6198.9108 -2.725561e-01  2.196983e+03
6199.3113 -1.045171e-01  2.382126e+03
6199.7117 -2.005965e-02  2.475720e+03
6200.1121  6.806595e-03  2.506234e+03
6200.5125  1.073602e-01  2.617453e+03
6200.9130  1.174096e-02  2.513805e+03
6201.3134  2.554457e-02  2.530004e+03
6201.7138  4.414022e-02  2.551449e+03
6202.1142 -3.843944e-03  2.499968e+03
6202.5146 -1.198660e-01  2.373963e+03
6202.9151 -1.656620e-01  2.324874e+03
6203.3155 -1.230634e-01  2.372600e+03
6203.7159 -9.713845e-02  2.402062e+03
6204.1163 -1.251991e-01  2.372391e+03
6204.5167 -8.484938e-02  2.417647e+03
6204.9172 -7.672256e-02  2.427608e+03
6205.3176 -7.066146e-02  2.435305e+03
6205.7180 -1.128004e-01  2.390206e+03
6206.1184 -6.984296e-02  2.438310e+03
6206.5188  1.608678e-02  2.533479e+03
6206.9193 -5.009415e-02  2.462042e+03
6207.3197  3.940335e-02  2.561115e+03
6207.7201  1.028151e-01  2.631615e+03
6208.1205  1.650619e-03  2.521854e+03
6208.5210 -2.683482e-02  2.491697e+03
6208.9214 -8.455859e-03  2.512867e+03
6209.3218  3.366838e-02  2.560044e+03
6209.7222  7.258421e-02  2.603704e+03
6210.1226  1.731245e-02  2.544201e+03
6210.5231  7.388556e-03  2.534365e+03
6210.9235  5.862401e-02  2.591514e+03
6211.3239 -1.229566e-02  2.514867e+03
6211.7243 -7.482993e-02  2.447402e+03
6212.1247 -1.634974e-02  2.512482e+03
6212.5252  4.514088e-03  2.536359e+03
6212.9256 -1.002756e-01  2.422609e+03
6213.3260 -6.226404e-02  2.465265e+03
6213.7264  2.648659e-02  2.563494e+03
6214.1269  8.021751e-02  2.623365e+03
6214.5273  3.245931e-02  2.572075e+03
6214.9277 -3.476686e-02  2.499460e+03
6215.3281 -1.008243e-02  2.527513e+03
6215.7285  2.865139e-02  2.570953e+03
6216.1290  1.645751e-02  2.558612e+03
6216.5294  1.075702e-02  2.553381e+03
6216.9298  1.858219e-02  2.562964e+03
6217.3302  5.728786e-02  2.606369e+03
6217.7306  3.667332e-03  2.548650e+03
6218.1311 -1.925378e-02  2.524554e+03
6218.5315 -3.137571e-02  2.512286e+03
6218.9319  3.773507e-03  2.551792e+03
6219.3323 -5.234821e-02  2.491330e+03
6219.7328 -4.309349e-03  2.544953e+03
6220.1332 -7.193203e-02  2.471893e+03
6220.5336 -4.045052e-02  2.507379e+03
6220.9340 -1.917940e-02  2.531682e+03
6221.3344  1.139671e-02  2.566176e+03
6221.7349  6.732489e-02  2.628437e+03
6222.1353  9.494674e-02  2.659694e+03
6222.5357  5.725081e-02  2.619410e+03
6222.9361 -1.498497e-02  2.541294e+03
6223.3365  4.365168e-02  2.606520e+03
6223.7370 -6.308766e-03  2.552802e+03
6224.1374  5.669547e-02  2.622812e+03
6224.5378 -6.148772e-02  2.494370e+03
6224.9382  6.582672e-02  2.634818e+03
6225.3386  1.420117e-02  2.579275e+03
6225.7391  2.064466e-02  2.587335e+03
6226.1395  1.770033e-02  2.585113e+03
6226.5399 -4.946412e-03  2.561311e+03
6226.9403  7.032647e-02  2.644759e+03
6227.3408  8.567612e-02  2.662574e+03
6227.7412  4.988656e-02  2.624378e+03
6228.1416  4.492545e-02  2.619948e+03
6228.5420  4.498323e-02  2.621016e+03
6228.9424  2.753634e-02  2.602911e+03
6229.3429  3.662935e-02  2.613876e+03
6229.7433  1.501822e-01  2.739255e+03
6230.1437  1.394381e-01  2.728494e+03
6230.5441  1.490189e-01  2.739995e+03
6230.9445  1.213695e-01  2.710719e+03
6231.3450  9.068251e-02  2.678117e+03
6231.7454  9.261104e-02  2.681239e+03
6232.1458  7.016781e-02  2.657668e+03
6232.5462  1.299746e-02  2.596062e+03
6232.9467  6.853017e-02  2.657898e+03
6233.3471  7.733467e-02  2.668556e+03
6233.7475 -2.658793e-02  2.555746e+03
6234.1479 -3.006161e-02  2.552957e+03
6234.5483  7.519457e-02  2.669260e+03
6234.9488  4.305148e-02  2.635073e+03
6235.3492  9.005783e-02  2.687578e+03
6235.7496  9.956000e-02  2.699007e+03
6236.1500 -1.151714e-02  2.578369e+03
6236.5504 -1.851681e-02  2.571726e+03
6236.9509  3.443629e-02  2.630751e+03
6237.3513 -2.265854e-03  2.591579e+03
6237.7517  2.852588e-02  2.626334e+03
6238.1521  6.213954e-02  2.664181e+03
6238.5526  6.839783e-02  2.672069e+03
6238.9530  5.323030e-02  2.656490e+03
6239.3534 -1.643359e-02  2.581225e+03
6239.7538 -4.231630e-02  2.553914e+03
6240.1542  1.456086e-02  2.617251e+03
6240.5547  2.718204e-02  2.632117e+03
6240.9551  7.675724e-02  2.687460e+03
6241.3555  2.925168e-02  2.636474e+03
6241.7559  5.575113e-02  2.666547e+03
6242.1563  3.194221e-02  2.641520e+03
6242.5568 -5.348070e-02  2.549011e+03
6242.9572  3.004250e-02  2.641548e+03
6243.3576  6.496839e-02  2.680859e+03
6243.7580  8.416764e-03  2.619979e+03
6244.1584  4.567800e-02  2.661854e+03
6244.5589 -5.129323e-03  2.607270e+03
6244.9593  2.131279e-02  2.637299e+03
6245.3597  4.126520e-02  2.660223e+03
6245.7601  3.080545e-02  2.649840e+03
6246.1606  3.124244e-02  2.651394e+03
6246.5610 -2.571187e-03  2.615437e+03
6246.9614  9.111238e-03  2.629313e+03
6247.3618  6.413555e-02  2.690665e+03
6247.7622  9.596601e-03  2.632016e+03
6248.1627 -2.421806e-04  2.622329e+03
6248.5631  6.932177e-02  2.699614e+03
6248.9635  6.569379e-02  2.696736e+03
6249.3639  8.302687e-02  2.716820e+03
6249.7643  4.167013e-02  2.672624e+03
6250.1648 -4.740427e-03  2.622896e+03
6250.5652  1.952853e-02  2.650586e+03
6250.9656  2.426482e-02  2.656885e+03
6251.3660  2.822400e-02  2.662336e+03
6251.7665  1.334944e-02  2.647163e+03
6252.1669  3.512928e-02  2.672139e+03
6252.5673  1.107971e-01  2.756142e+03
6252.9677  1.295657e-01  2.777827e+03
6253.3681  4.693769e-02  2.688458e+03
6253.7686  2.266779e-02  2.663010e+03
6254.1690  2.946350e-02  2.671592e+03
6254.5694  9.585416e-02  2.745451e+03
6254.9698  9.922354e-02  2.750288e+03
6255.3702  4.146270e-02  2.688173e+03
6255.7707  5.678580e-02  2.706109e+03
6256.1711  1.908096e-03  2.647160e+03
6256.5715 -1.368492e-02  2.631242e+03
6256.9719  7.758590e-02  2.732374e+03
6257.3724  6.159137e-02  2.716024e+03
6257.7728  3.648668e-02  2.689699e+03
6258.1732  5.570211e-02  2.711922e+03
6258.5736  4.671984e-02  2.703264e+03
6258.9740  4.677437e-02  2.704508e+03
6259.3745  2.784053e-02  2.684958e+03
6259.7749  3.967699e-02  2.699115e+03
6260.1753  5.874048e-03  2.663287e+03
6260.5757  1.198768e-01  2.789353e+03
6260.9761  1.246380e-01  2.795772e+03
6261.3766  5.630022e-02  2.722132e+03
6261.7770  1.774577e-02  2.681116e+03
6262.1774  3.490588e-02  2.701128e+03
6262.5778  3.268377e-02  2.699916e+03
6262.9782  1.098581e-01  2.785669e+03
6263.3787  1.062513e-01  2.782948e+03
6263.7791  5.138385e-02  2.724087e+03
6264.1795 -7.640904e-03  2.660676e+03
6264.5799 -4.625923e-02  2.619621e+03
6264.9804 -1.796476e-01  2.474770e+03
6265.3808 -2.342679e-01  2.416196e+03
6265.7812 -5.723290e-02  2.611356e+03
6266.1816  4.472453e-02  2.724289e+03
6266.5820  1.134487e-01  2.800826e+03
6266.9825  1.668175e-01  2.860550e+03
6267.3829  7.560695e-02  2.761922e+03
6267.7833  4.465875e-02  2.729303e+03
6268.1837  3.175941e-02  2.716457e+03
6268.5841  1.301993e-02  2.697219e+03
6268.9846  4.011681e-02  2.728190e+03
6269.3850 -2.268352e-03  2.683062e+03
6269.7854 -1.088839e-02  2.674922e+03
6270.1858  8.960997e-03  2.697969e+03
6270.5863 -6.583792e-02  2.617353e+03
6270.9867 -8.451430e-02  2.598211e+03
6271.3871 -6.554531e-04  2.691380e+03
6271.7875  4.402649e-02  2.741644e+03
6272.1879  4.056107e-02  2.739177e+03
6272.5884  3.242250e-02  2.731597e+03
6272.9888  9.581090e-02  2.802363e+03
6273.3892  3.388439e-02  2.735879e+03
6273.7896 -5.044663e-02  2.644860e+03
6274.1900 -6.638257e-03  2.694195e+03
6274.5905  2.133314e-02  2.726188e+03
6274.9909  6.949553e-02  2.780302e+03
6275.3913 -4.987115e-02  2.650927e+03
6275.7917 -3.048479e-02  2.673532e+03
6276.1922 -7.371213e-02  2.627562e+03
6276.5926 -6.091824e-02  2.642955e+03
6276.9930 -1.341826e-01  2.564095e+03
6277.3934 -2.155216e-01  2.476396e+03
6277.7938 -2.247325e-01  2.467702e+03
6278.1943 -2.656045e-01  2.424335e+03
6278.5947 -2.785113e-01  2.411603e+03
6278.9951 -1.875620e-01  2.512627e+03
6279.3955 -2.189063e-01  2.479710e+03
6279.7959 -2.770536e-01  2.417440e+03
6280.1964 -1.718354e-01  2.534107e+03
6280.5968 -2.963856e-01  2.399117e+03
6280.9972 -1.874905e-01  2.519821e+03
6281.3976 -1.723662e-01  2.537824e+03
6281.7981 -2.552786e-01  2.448453e+03
6282.1985 -2.282520e-01  2.479501e+03
6282.5989 -3.900436e-01  2.303745e+03
6282.9993 -4.654308e-01  2.222630e+03
6283.3997 -4.704386e-01  2.218606e+03
6283.8002 -4.651491e-01  2.225865e+03
6284.2006 -4.724957e-01  2.219288e+03
6284.6010 -4.605168e-01  2.233883e+03
6285.0014 -4.354112e-01  2.262860e+03
6285.4018 -4.047440e-01  2.297933e+03
6285.8023 -3.479383e-01  2.361640e+03
6286.2027 -2.463360e-01  2.474417e+03
6286.6031 -1.790226e-01  2.549642e+03
6287.0035 -1.139931e-01  2.622370e+03
6287.4039 -9.353355e-02  2.646286e+03
6287.8044 -1.623804e-01  2.572390e+03
6288.2048 -2.089474e-01  2.522902e+03
6288.6052 -1.039210e-01  2.639456e+03
6289.0056 -1.104875e-01  2.633788e+03
6289.4061 -5.378302e-02  2.697425e+03
6289.8065 -7.106822e-02  2.680026e+03
6290.2069 -5.765546e-02  2.696255e+03
6290.6073 -5.811856e-03  2.754581e+03
6291.0077 -5.942925e-02  2.697401e+03
6291.4082 -8.919394e-02  2.666352e+03
6291.8086 -5.851554e-02  2.701509e+03
6292.2090 -5.265443e-02  2.709488e+03
6292.6094 -7.913105e-02  2.682052e+03
6293.0098 -2.010975e-02  2.748266e+03
6293.4103 -3.826923e-03  2.767672e+03
6293.8107  4.511067e-02  2.822850e+03
6294.2111 -7.221578e-02  2.695924e+03
6294.6115  1.072151e-01  2.894037e+03
6295.0120  2.165905e-02  2.801918e+03
6295.4124 -5.813562e-02  2.716113e+03
6295.8128 -1.962159e-02  2.759894e+03
6296.2132  2.429926e-02  2.809601e+03
6296.6136  4.920967e-02  2.838490e+03
6297.0141  3.275938e-02  2.822082e+03
6297.4145  2.453658e-02  2.814688e+03
6297.8149  1.239015e-01  2.925138e+03
6298.2153  1.694468e-01  2.976644e+03
6298.6157  4.195745e-02  2.838631e+03
6299.0162 -2.961694e-01  2.469914e+03
6299.4166 -1.086768e-01  2.676904e+03
6299.8170 -9.108824e-02  2.697805e+03
6300.2174 -9.165434e-02  2.698824e+03
6300.6179 -1.905910e-01  2.592104e+03
6301.0183  2.687381e-02  2.831937e+03
6301.4187  1.180346e-01  2.933434e+03
6301.8191 -1.667540e-01  2.623163e+03
6302.2195  3.129822e-02  2.841744e+03
6302.6200  3.661170e-02  2.849225e+03
6303.0204  2.023576e-02  2.832953e+03
6303.4208 -5.895861e-03  2.805999e+03
6303.8212  1.416863e-02  2.829647e+03
6304.2216  6.780305e-02  2.890066e+03
6304.6221  9.281775e-02  2.919142e+03
6305.0225  3.593204e-02  2.858517e+03
6305.4229 -1.005684e-01  2.710694e+03
6305.8233 -4.017531e-02  2.778529e+03
6306.2237  1.763111e-02  2.843534e+03
6306.6242  3.516943e-02  2.864437e+03
6307.0246 -9.630181e-02  2.722134e+03
6307.4250  4.825310e-02  2.882163e+03
6307.8254  6.771741e-02  2.905184e+03
6308.2259  2.314580e-02  2.858070e+03
6308.6263 -1.778127e-02  2.814951e+03
6309.0267  8.819271e-03  2.845797e+03
6309.4271 -6.729075e-03  2.830481e+03
6309.8275 -6.653513e-02  2.766692e+03
6310.2280 -1.699977e-01  2.655090e+03
6310.6284 -5.256550e-02  2.785433e+03
6311.0288  1.294910e-02  2.858915e+03
6311.4292  3.110780e-03  2.849865e+03
6311.8296 -2.880722e-03  2.845032e+03
6312.2301 -2.013962e-03  2.847712e+03
6312.6305  2.394933e-02  2.877883e+03
6313.0309 -6.635073e-03  2.846121e+03
6313.4313  6.730131e-02  2.928840e+03
6313.8318  4.224147e-02  2.903133e+03
6314.2322  3.115422e-02  2.892732e+03
6314.6326  1.104402e-02  2.872450e+03
6315.0330  9.683878e-02  2.968167e+03
6315.4334 -1.214807e-02  2.850544e+03
6315.8339 -1.555909e-02  2.848558e+03
6316.2343 -7.034098e-02  2.790309e+03
6316.6347  3.521322e-03  2.872964e+03
6317.0351 -2.014421e-02  2.848800e+03
6317.4355  1.579938e-02  2.889926e+03
6317.8360 -9.914623e-03  2.863521e+03
6318.2364 -9.165745e-02  2.775751e+03
6318.6368 -6.284493e-02  2.809072e+03
6319.0372 -1.086836e-02  2.867765e+03
6319.4377  4.229398e-04  2.881898e+03
6319.8381  3.928271e-02  2.926228e+03
6320.2385 -4.580982e-03  2.879954e+03
6320.6389 -4.799761e-02  2.834170e+03
6321.0393 -1.873242e-02  2.867995e+03
6321.4398  2.717749e-02  2.920052e+03
6321.8402 -1.054239e-02  2.880511e+03
6322.2406 -3.685719e-02  2.853464e+03
6322.6410 -5.367600e-02  2.836818e+03
6323.0414 -7.675477e-02  2.813317e+03
6323.4419  4.186418e-05  2.899208e+03
6323.8423  3.870510e-02  2.943334e+03
6324.2427  6.154384e-02  2.970128e+03
6324.6431  4.427506e-02  2.952994e+03
6325.0435  5.857652e-03  2.912697e+03
6325.4440  6.587753e-02  2.980217e+03
6325.8444  1.289575e-01  3.051090e+03
6326.2448  9.314959e-02  3.013652e+03
6326.6452  6.296969e-02  2.982379e+03
6327.0457  9.701351e-02  3.021450e+03
6327.4461  1.049484e-01  3.031925e+03
6327.8465 -6.689383e-02  2.845493e+03
6328.2469 -1.998632e-02  2.898654e+03
6328.6473  1.618944e-02  2.940061e+03
6329.0478  2.955961e-02  2.956490e+03
6329.4482  6.838837e-02  3.000803e+03
6329.8486  6.875128e-02  3.002985e+03
6330.2490  5.849387e-02  2.993535e+03
6330.6494  1.412286e-02  2.946721e+03
6331.0499  7.106282e-02  3.010871e+03
6331.4503  5.604221e-02  2.996203e+03
6331.8507  4.707116e-02  2.988161e+03
6332.2511  2.918614e-02  2.970355e+03
6332.6516 -2.123609e-02  2.916912e+03
6333.0520 -3.628238e-02  2.902214e+03
6333.4524  1.641303e-02  2.961713e+03
6333.8528  6.676536e-02  3.018645e+03
6334.2532  6.449617e-02  3.017941e+03
6334.6537 -1.211979e-02  2.935805e+03
6335.0541  1.341200e-01  3.097759e+03
6335.4545  8.973850e-02  3.050927e+03
6335.8549  4.501048e-02  3.003715e+03
6336.2553  2.680250e-02  2.985550e+03
6336.6558 -6.178835e-02  2.890293e+03
6337.0562  9.035994e-02  3.058715e+03
6337.4566  3.213347e-02  2.996714e+03
6337.8570 -5.905507e-02  2.898610e+03
6338.2575  1.267887e-02  2.978951e+03
6338.6579  3.787171e-02  3.008315e+03
6339.0583  1.485307e-02  2.984872e+03
6339.4587  1.520016e-02  2.987020e+03
6339.8591 -9.372496e-04  2.971112e+03
6340.2596 -2.993518e-02  2.941116e+03
6340.6600 -4.674351e-02  2.924470e+03
6341.0604  2.134999e-02  3.000814e+03
6341.4608  2.074503e-02  3.001912e+03
6341.8612  1.920339e-02  3.001982e+03
6342.2617  7.044768e-02  3.059866e+03
6342.6621  2.284468e-02  3.009483e+03
6343.0625 -3.820194e-03  2.982031e+03
6343.4629  5.130335e-02  3.044158e+03
6343.8633 -8.160640e-03  2.980778e+03
6344.2638 -4.745426e-02  2.939488e+03
6344.6642  7.586043e-02  3.076298e+03
6345.0646  7.448989e-03  3.003112e+03
6345.4650 -8.995755e-03  2.986842e+03
6345.8655 -4.509103e-02  2.949046e+03
6346.2659  4.896422e-02  3.053801e+03
6346.6663 -3.455426e-02  2.964059e+03
6347.0667 -9.710807e-02  2.897277e+03
6347.4671 -3.670022e-02  2.965170e+03
6347.8676 -1.728057e-02  2.988168e+03
6348.2680 -5.915646e-02  2.944027e+03
6348.6684 -3.601018e-02  2.971101e+03
6349.0688 -3.599532e-02  2.972837e+03
6349.4692 -6.960804e-02  2.937739e+03
6349.8697 -4.158388e-02  2.970148e+03
6350.2701 -1.636934e-01  2.838115e+03
6350.6705 -1.791730e-02  2.999490e+03
6351.0709  2.831264e-02  3.051831e+03
6351.4714 -1.036663e-01  2.908979e+03
6351.8718 -9.647039e-03  3.013658e+03
6352.2722 -1.602220e-02  3.008372e+03
6352.6726  3.361002e-02  3.064428e+03
6353.0730  3.095792e-03  3.032697e+03
6353.4735 -1.467566e-02  3.014920e+03
6353.8739  5.142289e-03  3.038312e+03
6354.2743 -4.973593e-02  2.979886e+03
6354.6747  5.870723e-03  3.042469e+03
6355.0751 -3.536082e-02  2.998984e+03
6355.4756 -2.102627e-02  3.016356e+03
6355.8760 -5.359232e-03  3.035184e+03
6356.2764 -6.973801e-02  2.966336e+03
6356.6768 -3.845866e-02  3.002257e+03
6357.0773  6.124188e-02  3.113115e+03
6357.4777  5.466014e-02  3.107561e+03
6357.8781 -5.976530e-03  3.042797e+03
6358.2785 -8.410355e-03  3.041778e+03
6358.6789 -2.548898e-02  3.024715e+03
6359.0794  3.971377e-02  3.097770e+03
6359.4798  5.530795e-02  3.116486e+03
6359.8802  4.844765e-02  3.110604e+03
6360.2806 -1.089334e-01  2.939855e+03
6360.6810  2.544222e-02  3.088659e+03
6361.0815 -8.893675e-02  2.965001e+03
6361.4819 -1.081473e-01  2.945576e+03
6361.8823 -3.190568e-02  3.030695e+03
6362.2827  8.659168e-03  3.076733e+03
6362.6832 -4.728514e-02  3.017062e+03
6363.0836 -1.199232e-01  2.939103e+03
6363.4840 -8.475979e-02  2.979213e+03
6363.8844  1.253582e-02  3.087371e+03
6364.2848 -1.845730e-02  3.055012e+03
6364.6853 -5.129705e-02  3.020626e+03
6365.0857 -2.139332e-02  3.054958e+03
6365.4861 -1.112554e-01  2.958108e+03
6365.8865 -7.449999e-02  2.999936e+03
6366.2869  5.680990e-04  3.083723e+03
6366.6874  1.072039e-01  3.202081e+03
6367.0878  7.176191e-02  3.164819e+03
6367.4882 -4.210783e-02  3.041652e+03
6367.8886 -2.664214e-02  3.060139e+03
6368.2890 -5.207312e-02  3.033828e+03
6368.6895 -2.452812e-02  3.065537e+03
6369.0899  5.665579e-02  3.155990e+03
6369.4903 -2.861134e-02  3.064128e+03
6369.8907 -1.214531e-01  2.963965e+03
6370.2912 -5.446748e-02  3.038854e+03
6370.6916  2.126193e-02  3.123314e+03
6371.0920  3.726394e-02  3.142352e+03
6371.4924  2.612432e-03  3.105905e+03
6371.8928 -3.648381e-02  3.064584e+03
6372.2933 -1.224119e-02  3.092634e+03
6372.6937  3.668259e-02  3.147711e+03
6373.0941 -8.458869e-03  3.099755e+03
6373.4945 -1.468333e-02  3.094419e+03
6373.8949 -1.422386e-02  3.096399e+03
6374.2954 -1.329692e-02  3.098886e+03
6374.6958 -5.925162e-02  3.050020e+03
6375.0962 -6.561854e-02  3.044509e+03
6375.4966 -1.228695e-01  2.983260e+03
6375.8971 -1.983491e-02  3.097564e+03
6376.2975 -1.738552e-02  3.101694e+03
6376.6979 -1.315187e-01  2.978127e+03
6377.0983 -1.441299e-01  2.965751e+03
6377.4987 -7.349455e-02  3.044549e+03
6377.8992 -1.061077e-01  3.010255e+03
6378.2996 -3.493160e-02  3.089635e+03
6378.7000 -3.682585e-02  3.088977e+03
6379.1004 -6.325459e-02  3.061441e+03
6379.5008 -1.098788e-01  3.011781e+03
6379.9013 -1.370350e-01  2.983438e+03
6380.3017 -1.251295e-01  2.997874e+03
6380.7021 -4.163768e-02  3.090712e+03
6381.1025 -4.666779e-03  3.132591e+03
6381.5030 -3.687563e-02  3.098693e+03
6381.9034 -6.086245e-02  3.073796e+03
6382.3038 -6.871178e-02  3.066568e+03
6382.7042 -1.246040e-01  3.006715e+03
6383.1046 -1.859905e-03  3.142514e+03
6383.5051 -5.311706e-02  3.087727e+03
6383.9055  4.315400e-02  3.194520e+03
6384.3059 -2.058241e-02  3.126053e+03
6384.7063 -8.148190e-03  3.141010e+03
6385.1067  7.732492e-02  3.235960e+03
6385.5072  8.091388e-02  3.241219e+03
6385.9076 -1.210260e-02  3.140661e+03
6386.3080 -4.270832e-02  3.108456e+03
6386.7084 -4.204839e-02  3.110490e+03
6387.1088  2.188938e-02  3.181826e+03
6387.5093  7.090300e-02  3.236811e+03
6387.9097 -6.176684e-02  3.092795e+03
6388.3101 -1.107010e-01  3.040488e+03
6388.7105 -8.729251e-02  3.067411e+03
6389.1110 -7.061992e-02  3.086952e+03
6389.5114 -2.354985e-02  3.139781e+03
6389.9118  2.859946e-02  3.198168e+03
6390.3122  1.116679e-02  3.180337e+03
6390.7126 -5.864568e-02  3.105131e+03
6391.1131  1.924352e-03  3.172725e+03
6391.5135  1.381225e-01  3.323148e+03
6391.9139  1.372705e-01  3.323456e+03
6392.3143  2.361309e-01  3.432973e+03
6392.7147  1.781638e-01  3.370714e+03
6393.1152  6.359711e-02  3.246456e+03
6393.5156  9.060322e-02  3.277256e+03
6393.9160  6.736603e-02  3.253020e+03
6394.3164  1.083640e-01  3.299134e+03
6394.7169  8.311795e-02  3.272687e+03
6395.1173  4.298448e-02  3.229928e+03
6395.5177 -1.083941e-02  3.172169e+03
6395.9181  2.675773e-03  3.188161e+03
6396.3185  5.087186e-02  3.242132e+03
6396.7190 -3.283018e-03  3.183995e+03
6397.1194  2.605257e-02  3.217299e+03
6397.5198  3.374971e-02  3.226896e+03
6397.9202  1.795786e-02  3.210762e+03
6398.3206  9.522754e-03  3.202680e+03
6398.7211 -2.289843e-02  3.168321e+03
6399.1215 -5.430041e-02  3.135073e+03
6399.5219 -7.747733e-03  3.187203e+03
6399.9223  1.812771e-03  3.198810e+03
6400.3228 -6.247875e-02  3.129523e+03
6400.7232  5.986634e-03  3.205638e+03
6401.1236  4.055524e-02  3.244621e+03
6401.5240  8.064602e-02  3.289647e+03
6401.9244  3.579427e-02  3.241632e+03
6402.3249 -7.484019e-03  3.195335e+03
6402.7253  1.163374e-02  3.217374e+03
6403.1257  5.658773e-02  3.267706e+03
6403.5261 -6.195191e-03  3.200031e+03
6403.9265  1.340211e-02  3.222580e+03
6404.3270  1.719852e-02  3.227818e+03
6404.7274  2.963516e-02  3.242514e+03
6405.1278  5.861140e-02  3.275321e+03
6405.5282  4.931605e-02  3.266205e+03
6405.9286  8.234301e-02  3.303438e+03
6406.3291  7.744274e-02  3.299126e+03
6406.7295  3.927492e-02  3.258371e+03
6407.1299  5.028560e-02  3.271476e+03
6407.5303  4.505482e-02  3.266786e+03
6407.9308  1.749220e-02  3.237633e+03
6408.3312 -2.518115e-02  3.191923e+03
6408.7316  4.460175e-03  3.225415e+03
6409.1320  4.380877e-02  3.269533e+03
6409.5324  2.254551e-02  3.247260e+03
6409.9329 -4.763198e-02  3.171406e+03
6410.3333  4.749482e-02  3.276604e+03
6410.7337  2.957197e-02  3.257975e+03
6411.1341 -2.735743e-02  3.196618e+03
6411.5345 -3.616892e-02  3.187959e+03
6411.9350 -6.114693e-03  3.221865e+03
6412.3354 -9.517424e-02  3.125303e+03
6412.7358 -2.477096e-02  3.203393e+03
6413.1362  2.892918e-03  3.234667e+03
6413.5367  5.824911e-03  3.238848e+03
6413.9371  3.513134e-02  3.271912e+03
6414.3375  3.459002e-02  3.272280e+03
6414.7379  1.555841e-02  3.252391e+03
6415.1383  6.296365e-02  3.305265e+03
6415.5388  7.596719e-02  3.320455e+03
6415.9392 -1.894181e-02  3.217445e+03
6416.3396 -4.532970e-02  3.189481e+03
6416.7400 -6.666607e-02  3.167046e+03
6417.1404 -5.189747e-02  3.184152e+03
6417.5409 -7.320223e-02  3.161743e+03
6417.9413  2.692273e-02  3.272331e+03
6418.3417 -3.966813e-02  3.200312e+03
6418.7421 -6.253703e-03  3.237824e+03
6419.1426  8.903294e-02  3.343099e+03
6419.5430  3.557375e-02  3.285451e+03
6419.9434  5.186939e-02  3.304201e+03
6420.3438  2.316538e-03  3.250823e+03
6420.7442  3.850940e-02  3.291358e+03
6421.1447  8.009651e-02  3.337797e+03
6421.5451  6.828875e-02  3.325749e+03
6421.9455  5.738885e-02  3.314692e+03
6422.3459  6.410790e-02  3.322929e+03
6422.7463  1.876940e-02  3.274144e+03
6423.1468  1.531058e-02  3.271226e+03
6423.5472  8.778603e-02  3.351473e+03
6423.9476  1.314801e-01  3.400193e+03
6424.3480  1.290430e-01  3.398383e+03
6424.7484  1.266087e-01  3.396572e+03
6425.1489  1.241775e-01  3.394760e+03
6425.5493  1.217494e-01  3.392949e+03
6425.9497  1.193253e-01  3.391138e+03
6426.3501  1.169034e-01  3.389326e+03
6426.7506  1.144841e-01  3.387514e+03
6427.1510  1.120696e-01  3.385704e+03
6427.5514  1.096568e-01  3.383892e+03
6427.9518  1.072466e-01  3.382079e+03
6428.3522  1.048403e-01  3.380268e+03
6428.7527  1.024364e-01  3.378455e+03
6429.1531  1.000356e-01  3.376643e+03
6429.5535  9.763777e-02  3.374831e+03
6429.9539  9.524260e-02  3.373019e+03
6430.3543  9.284960e-02  3.371206e+03
6430.7548  9.045987e-02  3.369394e+03
6431.1552  8.807248e-02  3.367581e+03
6431.5556  8.568829e-02  3.365768e+03
6431.9560  8.330635e-02  3.363955e+03
6432.3565  8.092665e-02  3.362142e+03
6432.7569  7.855071e-02  3.360329e+03
6433.1573  7.617559e-02  3.358515e+03
6433.5577  7.380416e-02  3.356702e+03
6433.9581  7.143460e-02  3.354888e+03
6434.3586  6.906775e-02  3.353075e+03
6434.7590  6.670292e-02  3.351261e+03
6435.1594  6.434164e-02  3.349448e+03
6435.5598  6.198074e-02  3.347633e+03
6435.9602  5.962354e-02  3.345820e+03
6436.3607  5.726843e-02  3.344006e+03
6436.7611  5.491470e-02  3.342191e+03
6437.1615  5.256412e-02  3.340378e+03
6437.5619  5.021485e-02  3.338563e+03
6437.9624  4.786731e-02  3.336748e+03
6438.3628  4.552190e-02  3.334933e+03
6438.7632  4.317971e-02  3.333119e+03
6439.1636  4.083914e-02  3.331304e+03
6439.5640  3.849969e-02  3.329489e+03
6439.9645  3.616223e-02  3.327673e+03
6440.3649  3.382718e-02  3.325858e+03
6440.7653  3.149359e-02  3.324043e+03
6441.1657  2.916187e-02  3.322228e+03
6441.5661  2.683178e-02  3.320412e+03
6441.9666  2.450348e-02  3.318596e+03
6442.3670  2.217696e-02  3.316781e+03
6442.7674  1.985216e-02  3.314965e+03
6443.1678  1.752861e-02  3.313149e+03
6443.5683  1.520649e-02  3.311332e+03
6443.9687  1.288688e-02  3.309517e+03
6444.3691  1.056729e-02  3.307700e+03
6444.7695  8.250362e-03  3.305884e+03
6445.1699  5.933602e-03  3.304066e+03
6445.5704  3.619204e-03  3.302250e+03
6445.9708  1.306015e-03  3.300433e+03
6446.3712 -1.006000e-03  3.298616e+03
6446.7716 -3.316433e-03  3.296800e+03
6447.1720 -5.625543e-03  3.294983e+03
6447.5725 -7.933813e-03  3.293166e+03
6447.9729 -1.024106e-02  3.291349e+03
6448.3733 -1.254731e-02  3.289531e+03
6448.7737 -1.472110e-02  3.287857e+03
6449.1741 -2.451452e-02  3.277836e+03
6449.5746 -1.040076e-01  3.191473e+03
6449.9750 -1.183808e-03  3.304798e+03
6450.3754 -3.673562e-02  3.266561e+03
6450.7758  3.581465e-02  3.346726e+03
6451.1763 -5.230134e-02  3.250914e+03
6451.5767 -1.760763e-02  3.289613e+03
6451.9771 -1.636672e-02  3.291670e+03
6452.3775 -7.753218e-02  3.225374e+03
6452.7779 -1.283605e-01  3.170398e+03
6453.1784 -4.793389e-02  3.259184e+03
6453.5788 -5.277923e-02  3.254572e+03
6453.9792 -1.066452e-01  3.196267e+03
6454.3796 -8.469778e-02  3.220999e+03
6454.7800 -4.694422e-03  3.309318e+03
6455.1805 -4.550248e-02  3.265313e+03
6455.5809 -1.369924e-01  3.165797e+03
6455.9813 -5.659546e-02  3.254545e+03
6456.3817 -4.891893e-03  3.311866e+03
6456.7822 -8.628264e-02  3.223409e+03
6457.1826 -1.375735e-01  3.167920e+03
6457.5830 -7.450580e-02  3.237686e+03
6457.9834 -8.769539e-02  3.223928e+03
6458.3838 -2.197673e-02  3.296597e+03
6458.7843 -3.922852e-02  3.278389e+03
6459.1847 -9.495949e-02  3.218035e+03
6459.5851 -1.329649e-01  3.177095e+03
6459.9855  3.846742e-02  3.365549e+03
6460.3859 -3.896442e-02  3.281426e+03
6460.7864  4.227656e-02  3.371095e+03
6461.1868 -1.393331e-01  3.172867e+03
6461.5872 -1.109456e-01  3.204646e+03
6461.9876 -1.214027e-01  3.193878e+03
6462.3881 -9.118250e-02  3.227665e+03
6462.7885 -6.568296e-02  3.256280e+03
6463.1889 -1.371647e-01  3.178674e+03
6463.5893 -1.131503e-01  3.205663e+03
6463.9897 -6.900839e-03  3.322723e+03
6464.3902  5.326451e-02  3.389309e+03
6464.7906  6.343181e-02  3.401132e+03
6465.1910 -3.306917e-02  3.296123e+03
6465.5914 -5.087468e-02  3.277309e+03
6465.9918  1.530225e-02  3.350479e+03
6466.3923  1.042018e-02  3.345820e+03
6466.7927 -1.586721e-02  3.317717e+03
6467.1931 -2.728078e-02  3.305905e+03
6467.5935 -2.122644e-02  3.313226e+03
6467.9939 -2.549842e-02  3.309237e+03
6468.3944  1.439768e-02  3.353625e+03
6468.7948  2.844277e-02  3.369699e+03
6469.1952 -3.379504e-02  3.302223e+03
6469.5956 -2.326818e-02  3.314445e+03
6469.9961 -5.415427e-02  3.281309e+03
6470.3965  5.839216e-03  3.347712e+03
6470.7969  3.777348e-02  3.383384e+03
6471.1973 -7.215683e-02  3.263673e+03
6471.5977  5.780627e-02  3.406716e+03
6471.9982  1.359208e-02  3.358985e+03
6472.3986  6.186065e-02  3.412550e+03
6472.7990 -4.429175e-03  3.340642e+03
6473.1994 -2.412051e-02  3.319773e+03
6473.5998 -1.048167e-01  3.232088e+03
6474.0003 -1.110810e-01  3.225927e+03
6474.4007  1.432871e-02  3.363989e+03
6474.8011  3.951779e-02  3.392281e+03
6475.2015  4.887931e-02  3.403238e+03
6475.6020 -5.341156e-02  3.291905e+03
6476.0024  2.468744e-02  3.378152e+03
6476.4028 -7.838409e-03  3.343233e+03
6476.8032 -7.161134e-02  3.274092e+03
6477.2036 -2.375238e-02  3.327220e+03
6477.6041 -4.919843e-02  3.300060e+03
6478.0045 -3.645545e-02  3.314729e+03
6478.4049  6.792026e-03  3.362810e+03
6478.8053 -2.756007e-03  3.353066e+03
6479.2057 -3.580410e-02  3.317584e+03
6479.6062 -2.088146e-02  3.334645e+03
6480.0066  2.087441e-02  3.381097e+03
6480.4070 -4.292893e-02  3.311933e+03
6480.8074 -1.287737e-01  3.218629e+03
6481.2079 -1.473200e-03  3.358781e+03
6481.6083  4.194679e-02  3.407062e+03
6482.0087  4.129947e-02  3.407078e+03
6482.4091  8.922195e-03  3.372341e+03
6482.8095 -7.220179e-02  3.284215e+03
6483.2100 -8.650624e-02  3.269276e+03
6483.6104  1.926840e-02  3.385860e+03
6484.0108 -6.384551e-02  3.295559e+03
6484.4112 -1.922148e-02  3.345168e+03
6484.8116 -5.101988e-02  3.311075e+03
6485.2121  7.709096e-02  3.452130e+03
6485.6125 -4.612627e-04  3.367926e+03
6486.0129 -3.226247e-02  3.333835e+03
6486.4133 -5.074575e-03  3.364355e+03
6486.8137  5.430477e-02  3.430135e+03
6487.2142 -3.099634e-02  3.337451e+03
6487.6146 -5.259382e-02  3.314542e+03
6488.0150  6.292618e-02  3.441818e+03
6488.4154 -1.264370e-02  3.359797e+03
6488.8159 -3.417811e-02  3.336962e+03
6489.2163  3.036010e-02  3.408403e+03
6489.6167  5.213059e-03  3.381615e+03
6490.0171 -8.635727e-02  3.282076e+03
6490.4175 -4.765639e-02  3.325224e+03
6490.8180 -4.359934e-02  3.330428e+03
6491.2184 -8.235504e-02  3.288741e+03
6491.6188 -6.430759e-02  3.309273e+03
6492.0192 -4.018997e-02  3.336454e+03
6492.4196 -5.352771e-02  3.322614e+03
6492.8201 -7.378243e-02  3.301198e+03
6493.2205  3.940490e-03  3.387099e+03
6493.6209 -1.169270e-01  3.255488e+03
6494.0213 -1.614666e-02  3.366646e+03
6494.4218 -7.750336e-03  3.376620e+03
6494.8222 -4.262223e-02  3.339205e+03
6495.2226 -2.422650e-02  3.360134e+03
6495.6230 -5.359649e-02  3.328749e+03
6496.0234 -7.628702e-02  3.304681e+03
6496.4239  6.476457e-02  3.459960e+03
6496.8243 -6.532959e-02  3.318259e+03
6497.2247  6.089855e-03  3.397274e+03
6497.6251 -3.291889e-02  3.355341e+03
6498.0255 -2.637536e-02  3.363303e+03
6498.4260  1.519887e-01  3.559460e+03
6498.8264  2.563527e-02  3.421865e+03
6499.2268  2.435282e-02  3.421262e+03
6499.6272 -4.293764e-02  3.348362e+03
6500.0277 -1.782046e-03  3.394244e+03
6500.4281  4.572282e-02  3.447083e+03
6500.8285  8.191203e-02  3.487529e+03
6501.2289  8.552129e-03  3.407990e+03
6501.6293  3.784418e-03  3.403581e+03
6502.0298 -4.010879e-02  3.356321e+03
6502.4302 -1.066780e-02  3.389384e+03
6502.8306  1.347585e-02  3.416648e+03
6503.2310  1.352467e-02  3.417522e+03
6503.6314  3.902225e-02  3.446273e+03
6504.0319  3.033515e-02  3.437583e+03
6504.4323 -6.509384e-02  3.333889e+03
6504.8327  3.328464e-04  3.406379e+03
6505.2331  6.492422e-02  3.477957e+03
6505.6335  1.497469e-01  3.571696e+03
6506.0340  1.206578e-01  3.540671e+03
6506.4344 -6.077706e-02  3.342785e+03
6506.8348  7.664663e-02  3.494144e+03
6507.2352 -1.570874e-05  3.411018e+03
6507.6357  1.124063e-01  3.534997e+03
6508.0361  1.113186e-02  3.424918e+03
6508.4365  9.421092e-02  3.516762e+03
6508.8369  2.200471e-04  3.414665e+03
6509.2373  1.454779e-01  3.574616e+03
6509.6378  1.195976e-01  3.547124e+03
6510.0382 -2.561806e-02  3.388928e+03
6510.4386  1.156871e-02  3.430517e+03
6510.8390  7.622864e-02  3.502198e+03
6511.2394  4.411635e-02  3.467889e+03
6511.6399  3.644688e-02  3.460353e+03
6512.0403 -2.631404e-02  3.392479e+03
6512.4407 -1.911638e-02  3.401231e+03
6512.8411  8.139658e-02  3.512192e+03
6513.2416  1.929099e-02  3.445041e+03
6513.6420  6.701702e-02  3.498190e+03
6514.0424 -4.394156e-03  3.420851e+03
6514.4428 -1.947668e-02  3.405210e+03
6514.8432 -4.983831e-04  3.426877e+03
6515.2437  5.522224e-02  3.488790e+03
6515.6441  5.475902e-02  3.489168e+03
6516.0445 -5.913845e-02  3.365304e+03
6516.4449 -6.832831e-02  3.356127e+03
6516.8453  2.965295e-02  3.464336e+03
6517.2458 -1.023294e-01  3.320670e+03
6517.6462 -6.267162e-02  3.365001e+03
6518.0466  1.872488e-02  3.455050e+03
6518.4470 -2.394876e-02  3.409209e+03
6518.8475  5.751222e-02  3.499333e+03
6519.2479  3.883439e-02  3.479777e+03
6519.6483  7.537948e-03  3.446403e+03
6520.0487  6.965076e-02  3.515341e+03
6520.4491  8.288742e-02  3.530747e+03
6520.8496  5.036185e-02  3.496032e+03
6521.2500  5.181453e-02  3.498535e+03
6521.6504 -2.354670e-02  3.416906e+03
6522.0508  5.720684e-02  3.506270e+03
6522.4512 -3.467696e-02  3.406548e+03
6522.8517  7.633699e-02  3.529060e+03
6523.2521 -3.352266e-02  3.409653e+03
6523.6525  3.001359e-02  3.480166e+03
6524.0529  7.467695e-02  3.530010e+03
6524.4534 -6.512245e-03  3.442011e+03
6524.8538  1.101445e-01  3.570711e+03
6525.2542 -5.211928e-02  3.393916e+03
6525.6546  5.943055e-02  3.517027e+03
6526.0550  7.374638e-02  3.533640e+03
6526.4555  6.973616e-02  3.530183e+03
6526.8559  1.227053e-01  3.589136e+03
6527.2563 -3.631729e-03  3.451699e+03
6527.6567 -3.173415e-02  3.421859e+03
6528.0571 -5.650014e-02  3.395675e+03
6528.4576 -6.170414e-03  3.451744e+03
6528.8580  4.505233e-02  3.508792e+03
6529.2584  3.553190e-02  3.499311e+03
6529.6588 -4.631541e-02  3.410613e+03
6530.0592  2.810052e-02  3.493070e+03
6530.4597  5.442965e-02  3.522859e+03
6530.8601 -1.304860e-02  3.449904e+03
6531.2605 -2.531004e-02  3.437429e+03
6531.6609  6.671503e-02  3.539178e+03
6532.0614  1.606278e-02  3.484657e+03
6532.4618 -8.751804e-02  3.372166e+03
6532.8622 -4.735434e-02  3.417117e+03
6533.2626 -9.308894e-02  3.367986e+03
6533.6630 -8.715145e-02  3.375453e+03
6534.0635  9.092535e-02  3.571462e+03
6534.4639  3.651044e-02  3.512829e+03
6534.8643 -8.940888e-02  3.375878e+03
6535.2647 -6.004709e-02  3.409007e+03
6535.6651  1.131096e-02  3.488135e+03
6536.0656 -8.605662e-02  3.382461e+03
6536.4660 -4.243702e-02  3.431209e+03
6536.8664 -7.279885e-02  3.398929e+03
6537.2668 -2.555522e-02  3.451649e+03
6537.6673  5.587764e-02  3.541818e+03
6538.0677 -3.198411e-02  3.446562e+03
6538.4681  2.789490e-03  3.485629e+03
6538.8685 -6.595960e-05  3.483481e+03
6539.2689  3.794556e-02  3.526096e+03
6539.6694 -4.592280e-02  3.435219e+03
6540.0698  2.179065e-02  3.510369e+03
6540.4702  2.314004e-02  3.512832e+03
6540.8706  8.429714e-05  3.488565e+03
6541.2710  3.466002e-02  3.527422e+03
6541.6715  1.596809e-01  3.665344e+03
6542.0719  3.043615e-02  3.524773e+03
6542.4723  6.235113e-02  3.560720e+03
6542.8727  1.116181e-02  3.505644e+03
6543.2732  2.937368e-02  3.526583e+03
6543.6736  4.185789e-03  3.499989e+03
6544.0740  8.533162e-02  3.589861e+03
6544.4744  4.778839e-02  3.549735e+03
6544.8748 -1.227695e-02  3.484943e+03
6545.2753 -1.181159e-02  3.486449e+03
6545.6757 -2.128685e-02  3.477069e+03
6546.0761 -8.579096e-02  3.407417e+03
6546.4765 -1.500638e-02  3.485946e+03
6546.8769 -2.920674e-02  3.471393e+03
6547.2774 -5.780768e-02  3.441067e+03
6547.6778  7.883908e-03  3.514020e+03
6548.0782  8.646341e-02  3.601090e+03
6548.4786  2.627889e-02  3.536174e+03
6548.8790 -4.231857e-02  3.462044e+03
6549.2795  2.013411e-02  3.531452e+03
6549.6799  5.751202e-02  3.573397e+03
6550.0803  5.879295e-02  3.575806e+03
6550.4807  3.083067e-02  3.546186e+03
6550.8812 -5.081413e-02  3.457769e+03
6551.2816 -1.058121e-01  3.398538e+03
6551.6820 -3.580169e-02  3.476228e+03
6552.0824  2.613037e-03  3.519312e+03
6552.4828 -1.189988e-01  3.387121e+03
6552.8833 -7.899731e-02  3.431944e+03
6553.2837 -5.966318e-02  3.454131e+03
6553.6841 -3.051013e-03  3.517148e+03
6554.0845 -4.627247e-02  3.470820e+03
6554.4849 -5.808284e-02  3.458896e+03
6554.8854 -1.055680e-01  3.407898e+03
6555.2858 -1.253706e-01  3.387221e+03
6555.6862 -1.973452e-01  3.309401e+03
6556.0866 -4.342831e-02  3.478997e+03
6556.4871 -1.808240e-01  3.329523e+03
6556.8875 -3.329249e-01  3.163942e+03
6557.2879 -2.084095e-01  3.301336e+03
6557.6883 -2.582271e-01  3.247786e+03
6558.0887 -2.484581e-01  3.259500e+03
6558.4892 -2.752642e-01  3.231155e+03
6558.8896 -2.983031e-01  3.206936e+03
6559.2900 -3.818281e-01  3.116467e+03
6559.6904 -2.562557e-01  3.255020e+03
6560.0908 -3.004371e-01  3.207644e+03
6560.4913 -2.581149e-01  3.255014e+03
6560.8917 -1.962337e-01  3.323807e+03
6561.2921 -5.066781e-02  3.484259e+03
6561.6925  1.990869e-02  3.562576e+03
6562.0930  7.779250e-02  3.626991e+03
6562.4934  1.588097e-01  3.716744e+03
6562.8938  2.055399e-01  3.768943e+03
6563.2942  1.194862e-01  3.675705e+03
6563.6946 -7.935769e-03  3.537157e+03
6564.0951 -1.609066e-01  3.370626e+03
6564.4955 -1.422372e-01  3.392090e+03
6564.8959 -1.620604e-01  3.371393e+03
6565.2963 -3.030454e-01  3.217990e+03
6565.6967 -4.303873e-01  3.079529e+03
6566.0972 -4.046556e-01  3.108727e+03
6566.4976 -3.879535e-01  3.128036e+03
6566.8980 -4.242957e-01  3.089245e+03
6567.2984 -4.246365e-01  3.089886e+03
6567.6988 -4.576604e-01  3.054730e+03
6568.0993 -3.780619e-01  3.142927e+03
6568.4997 -3.288649e-01  3.197825e+03
6568.9001 -2.611017e-01  3.273059e+03
6569.3005 -2.109807e-01  3.328969e+03
6569.7010 -2.587295e-01  3.277683e+03
6570.1014 -2.031590e-01  3.339561e+03
6570.5018 -2.798074e-01  3.256621e+03
6570.9022 -2.209890e-01  3.322055e+03
6571.3026 -1.136424e-01  3.440642e+03
6571.7031 -9.734375e-02  3.459504e+03
6572.1035 -6.565958e-02  3.495218e+03
6572.5039 -6.961691e-02  3.491893e+03
6572.9043  1.891593e-02  3.589872e+03
6573.3047  3.623382e-02  3.609849e+03
6573.7052 -8.013061e-02  3.483405e+03
6574.1056 -3.758228e-02  3.531015e+03
6574.5060 -3.896909e-02  3.530504e+03
6574.9064 -5.902605e-02  3.509543e+03
6575.3069 -1.119074e-01  3.452629e+03
6575.7073 -1.033604e-01  3.462996e+03
6576.1077 -1.897564e-02  3.556427e+03
6576.5081  8.847014e-02  3.675115e+03
6576.9085  3.790693e-02  3.620738e+03
6577.3090  4.242542e-02  3.626690e+03
6577.7094  7.190566e-02  3.659982e+03
6578.1098  8.395897e-02  3.674186e+03
6578.5102 -2.544777e-02  3.555356e+03
6578.9106 -9.754132e-02  3.477394e+03
6579.3111  9.182200e-02  3.685801e+03
6579.7115  5.243179e-03  3.591971e+03
6580.1119 -5.602498e-02  3.525864e+03
6580.5123  3.345564e-02  3.624868e+03
6580.9128  1.065603e-02  3.600893e+03
6581.3132 -7.808530e-02  3.504692e+03
6581.7136  5.444279e-02  3.650844e+03
6582.1140  3.635993e-02  3.632032e+03
6582.5144  4.575997e-02  3.643322e+03
6582.9149  3.633698e-02  3.633994e+03
6583.3153  2.679438e-02  3.624534e+03
6583.7157  7.225968e-02  3.675323e+03
6584.1161  6.938986e-02  3.673170e+03
6584.5165  4.289487e-02  3.645140e+03
6584.9170  7.944695e-02  3.686164e+03
6585.3174  4.903119e-02  3.653838e+03
6585.7178  3.873399e-02  3.643546e+03
6586.1182 -4.795598e-02  3.549582e+03
6586.5186  3.731985e-03  3.607180e+03
6586.9191  1.132203e-02  3.616478e+03
6587.3195 -5.456155e-02  3.545299e+03
6587.7199 -3.495695e-02  3.567754e+03
6588.1203  6.631688e-02  3.679659e+03
6588.5208  8.511390e-02  3.701228e+03
6588.9212 -2.199147e-02  3.584896e+03
6589.3216 -4.888716e-02  3.556416e+03
6589.7220  3.997763e-03  3.615317e+03
6590.1224 -2.916094e-02  3.579975e+03
6590.5229 -8.288848e-02  3.522103e+03
6590.9233 -7.332650e-02  3.533550e+03
6591.3237 -1.408332e-01  3.460584e+03
6591.7241 -1.205413e-01  3.483782e+03
6592.1245  2.891145e-04  3.617097e+03
6592.5250 -2.960750e-02  3.585321e+03
6592.9254 -1.944310e-02  3.597423e+03
6593.3258  1.723393e-02  3.638563e+03
6593.7262  5.508977e-02  3.680992e+03
6594.1267  1.920330e-02  3.642652e+03
6594.5271  1.090607e-01  3.742036e+03
6594.9275  5.998044e-02  3.689243e+03
6595.3279  3.826416e-02  3.666419e+03
6595.7283  1.492536e-01  3.788946e+03
6596.1288  2.935671e-02  3.658584e+03
6596.5292  5.663831e-02  3.689425e+03
6596.9296  1.236831e-02  3.641894e+03
6597.3300  1.580401e-02  3.646614e+03
6597.7304  1.673668e-02  3.648591e+03
6598.1309  3.263910e-02  3.666963e+03
6598.5313 -2.171231e-02  3.608386e+03
6598.9317  3.525866e-02  3.671737e+03
6599.3321 -7.591485e-02  3.550921e+03
6599.7326  1.813385e-02  3.654881e+03
6600.1330  1.364785e-01  3.785451e+03
6600.5334  5.578082e-02  3.698011e+03
6600.9338  4.952072e-02  3.692101e+03
6601.3342  7.295147e-02  3.718709e+03
6601.7347  1.588402e-01  3.813726e+03
6602.1351  9.244595e-02  3.741948e+03
6602.5355  8.191292e-02  3.731353e+03
6602.9359  8.838233e-02  3.739379e+03
6603.3363  3.294222e-02  3.679595e+03
6603.7368  6.646755e-02  3.717253e+03
6604.1372  7.078543e-02  3.722919e+03
6604.5376  7.670617e-02  3.730339e+03
6604.9380  1.282200e-01  3.787696e+03
6605.3385  1.798526e-01  3.845182e+03
6605.7389  6.409798e-02  3.719329e+03
6606.1393  7.527421e-02  3.732501e+03
6606.5397 -5.980600e-02  3.585479e+03
6606.9401  5.427744e-03  3.657857e+03
6607.3406 -5.418038e-02  3.593496e+03
6607.7410  1.178668e-02  3.666675e+03
6608.1414  1.642726e-01  3.834615e+03
6608.5418 -5.556674e-03  3.649527e+03
6608.9422 -2.584064e-02  3.628233e+03
6609.3427  1.305846e-01  3.800484e+03
6609.7431  1.037981e-01  3.772065e+03
6610.1435  8.804894e-02  3.755734e+03
6610.5439  3.385269e-02  3.697291e+03
6610.9443  3.285223e-02  3.697112e+03
6611.3448  3.634944e-02  3.701857e+03
6611.7452  6.584337e-02  3.735076e+03
6612.1456  9.632783e-02  3.769378e+03
6612.5460 -1.981417e-02  3.643081e+03
6612.9465 -1.371416e-01  3.515484e+03
6613.3469 -9.029229e-02  3.567707e+03
6613.7473 -1.326051e-01  3.522270e+03
6614.1477 -2.658788e-01  3.377204e+03
6614.5481 -2.091143e-01  3.440283e+03
6614.9486 -2.099645e-01  3.440257e+03
6615.3490 -1.625943e-01  3.493044e+03
6615.7494 -6.591234e-02  3.599841e+03
6616.1498 -1.403207e-02  3.657565e+03
6616.5502  1.056380e-01  3.789538e+03
6616.9507  1.231931e-01  3.809665e+03
6617.3511  4.768508e-02  3.727860e+03
6617.7515  8.893222e-02  3.773934e+03
6618.1519  1.701698e-01  3.863808e+03
6618.5524  1.211049e-01  3.810962e+03
6618.9528  2.636111e-02  3.708083e+03
6619.3532  1.317437e-01  3.824400e+03
6619.7536  1.732556e-01  3.870758e+03
6620.1540  1.099923e-01  3.802356e+03
6620.5545  1.666445e-01  3.865296e+03
6620.9549  2.383051e-03  3.686270e+03
6621.3553  8.278207e-02  3.775217e+03
6621.7557  9.552354e-02  3.790058e+03
6622.1561 -1.910202e-02  3.665394e+03
6622.5566  1.150702e-01  3.813235e+03
6622.9570  1.939271e-01  3.900488e+03
6623.3574  4.778907e-02  3.741306e+03
6623.7578  7.105496e-03  3.697626e+03
6624.1583  2.415317e-02  3.717177e+03
6624.5587 -1.068048e-02  3.679903e+03
6624.9591 -2.332584e-02  3.666930e+03
6625.3595  4.550794e-02  3.743198e+03
6625.7599  4.512021e-02  3.743649e+03
6626.1604  2.099751e-03  3.697403e+03
6626.5608  6.848376e-03  3.703478e+03
6626.9612 -2.219749e-02  3.672536e+03
6627.3616  2.928998e-03  3.700928e+03
6627.7620  1.298870e-02  3.712816e+03
6628.1625 -2.497591e-02  3.672104e+03
6628.5629  9.331188e-02  3.802531e+03
6628.9633  5.306338e-02  3.759314e+03
6629.3637  1.188256e-01  3.832209e+03
6629.7641  4.533081e-02  3.752577e+03
6630.1646  1.867380e-02  3.724244e+03
6630.5650 -1.325889e-02  3.690133e+03
6630.9654  7.187786e-02  3.784244e+03
6631.3658 -3.229707e-04  3.706026e+03
6631.7663  4.178432e-02  3.753006e+03
6632.1667  8.489034e-02  3.801080e+03
6632.5671 -1.726021e-02  3.690055e+03
6632.9675  2.852488e-02  3.741061e+03
6633.3679  2.232929e-02  3.735132e+03
6633.7684  1.176640e-01  3.840408e+03
6634.1688 -6.740164e-02  3.638564e+03
6634.5692  9.705667e-02  3.819548e+03
6634.9696 -3.094585e-02  3.680202e+03
6635.3700  1.183032e-01  3.844526e+03
6635.7705 -8.386348e-03  3.706617e+03
6636.1709  1.205384e-01  3.848679e+03
6636.5713 -3.019025e-03  3.714199e+03
6636.9717  9.294160e-02  3.820154e+03
6637.3722  8.432057e-02  3.811561e+03
6637.7726  9.443017e-02  3.823482e+03
6638.1730  1.687454e-01  3.905727e+03
6638.5734 -1.940722e-02  3.700493e+03
6638.9738  6.433912e-02  3.793066e+03
6639.3743  7.468295e-02  3.805241e+03
6639.7747 -1.540496e-02  3.707414e+03
6640.1751  7.334877e-02  3.805469e+03
6640.5755  1.682903e-02  3.744408e+03
6640.9759  6.833898e-02  3.801669e+03
6641.3764  2.021826e-02  3.749805e+03
6641.7768  3.041913e-02  3.761820e+03
6642.1772  4.849769e-02  3.782462e+03
6642.5776  4.513017e-02  3.779615e+03
6642.9781  9.197060e-02  3.831758e+03
6643.3785 -2.197709e-02  3.707792e+03
6643.7789  5.092049e-02  3.788474e+03
6644.1793  8.369105e-02  3.825206e+03
6644.5797  1.307631e-02  3.748700e+03
6644.9802  6.669143e-02  3.808260e+03
6645.3806  1.085397e-01  3.854933e+03
6645.7810  1.065078e-01  3.853543e+03
6646.1814  8.461869e-02  3.830403e+03
6646.5818 -7.012333e-02  3.661751e+03
6646.9823 -5.089001e-02  3.683651e+03
6647.3827 -7.258847e-02  3.660719e+03
6647.7831  2.012229e-02  3.763097e+03
6648.1835  1.454357e-01  3.901184e+03
6648.5839  4.341996e-02  3.790279e+03
6648.9844  8.579068e-03  3.752950e+03
6649.3848  6.544686e-02  3.816068e+03
6649.7852  4.339824e-02  3.792749e+03
6650.1856  7.707066e-02  3.830460e+03
6650.5861 -1.408075e-02  3.731453e+03
6650.9865  6.454186e-02  3.818397e+03
6651.3869  4.131728e-02  3.793788e+03
6651.7873  6.607525e-02  3.821734e+03
6652.1877  7.873608e-02  3.836429e+03
6652.5882  7.338085e-02  3.831391e+03
6652.9886 -2.015397e-02  3.729771e+03
6653.3890  1.069492e-02  3.764386e+03
6653.7894 -7.276343e-03  3.745529e+03
6654.1898  7.221675e-02  3.833423e+03
6654.5903  1.369064e-01  3.905102e+03
6654.9907  8.820477e-02  3.852585e+03
6655.3911  4.550864e-02  3.806646e+03
6655.7915 -4.604134e-02  3.707197e+03
6656.1920 -3.798996e-03  3.754289e+03
6656.5924 -2.460775e-02  3.732322e+03
6656.9928  6.567865e-02  3.832035e+03
6657.3932  9.858833e-02  3.868904e+03
6657.7936 -5.425232e-03  3.755802e+03
6658.1941 -4.870061e-02  3.709226e+03
6658.5945  1.264364e-02  3.777238e+03
6658.9949  3.207493e-02  3.799343e+03
6659.3953 -5.413266e-02  3.705743e+03
6659.7957 -4.962498e-02  3.711501e+03
6660.1962 -8.174150e-02  3.677146e+03
6660.5966 -1.523002e-01  3.600685e+03
6660.9970 -4.615575e-02  3.717764e+03
6661.3974 -1.828482e-02  3.749112e+03
6661.7979  8.125154e-02  3.858953e+03
6662.1983  3.744926e-02  3.811797e+03
6662.5987  4.902612e-02  3.825296e+03
6662.9991  6.391418e-02  3.842423e+03
6663.3995  4.580215e-02  3.823404e+03
6663.8000  6.022567e-04  3.774716e+03
6664.2004 -3.045769e-02  3.741516e+03
6664.6008  2.682724e-02  3.805078e+03
6665.0012  1.151188e-02  3.789121e+03
6665.4016  2.443318e-02  3.804092e+03
6665.8021  1.702162e-02  3.796792e+03
6666.2025  5.196840e-02  3.835887e+03
6666.6029  1.535582e-02  3.796603e+03
6667.0033 -1.889471e-02  3.759906e+03
6667.4037 -9.740143e-02  3.674736e+03
6667.8042 -3.697629e-02  3.741736e+03
6668.2046  3.757538e-02  3.824208e+03
6668.6050  3.294045e-02  3.819948e+03
6669.0054  1.816861e-02  3.804585e+03
6669.4059  2.871829e-02  3.816956e+03
6669.8063  4.274786e-02  3.833138e+03
6670.2067  9.421967e-02  3.890331e+03
6670.6071  7.772437e-02  3.873079e+03
6671.0075  7.470430e-02  3.870587e+03
6671.4080  2.403138e-03  3.792211e+03
6671.8084 -2.788209e-02  3.759855e+03
6672.2088 -4.342668e-02  3.743645e+03
6672.6092 -1.373766e-01  3.641557e+03
6673.0096 -1.448197e-01  3.634219e+03
6673.4101 -1.670223e-01  3.610715e+03
6673.8105 -1.833187e-01  3.593680e+03
6674.2109 -2.101138e-01  3.565146e+03
6674.6113 -1.892574e-01  3.588803e+03
6675.0118 -2.216545e-01  3.554133e+03
6675.4122 -1.927411e-01  3.586614e+03
6675.8126 -4.809171e-02  3.745860e+03
6676.2130 -1.189680e-01  3.669043e+03
6676.6134 -2.153078e-01  3.564336e+03
6677.0139 -2.084553e-01  3.572654e+03
6677.4143 -1.696005e-01  3.616023e+03
6677.8147 -1.620859e-01  3.625066e+03
6678.2151 -2.276186e-01  3.554101e+03
6678.6155 -2.530560e-01  3.527051e+03
6679.0160 -2.271950e-01  3.556188e+03
6679.4164 -2.076678e-01  3.578386e+03
6679.8168 -2.281899e-01  3.556720e+03
6680.2172 -2.227345e-01  3.563506e+03
6680.6177 -2.589814e-01  3.524615e+03
6681.0181 -2.546554e-01  3.530164e+03
6681.4185 -2.610323e-01  3.523989e+03
6681.8189 -3.035251e-01  3.478257e+03
6682.2193 -2.899094e-01  3.493979e+03
6682.6198 -2.456065e-01  3.543312e+03
6683.0202 -2.234962e-01  3.568338e+03
6683.4206 -2.193496e-01  3.573688e+03
6683.8210 -7.315243e-02  3.734624e+03
6684.2214 -4.810248e-02  3.762869e+03
6684.6219 -8.258670e-02  3.725906e+03
6685.0223 -1.003657e-01  3.707240e+03
6685.4227 -1.157293e-01  3.691219e+03
6685.8231 -8.082519e-02  3.730256e+03
6686.2236  1.106305e-02  3.831706e+03
6686.6240  2.691089e-02  3.849869e+03
6687.0244 -6.677214e-02  3.748065e+03
6687.4248 -5.368511e-02  3.763204e+03
6687.8252  4.114529e-02  3.867875e+03
6688.2257  3.344377e-04  3.823979e+03
6688.6261 -2.799222e-02  3.793757e+03
6689.0265 -2.886974e-02  3.793599e+03
6689.4269 -1.914789e-02  3.805050e+03
6689.8273 -1.004908e-02  3.815818e+03
6690.2278 -2.690979e-02  3.798152e+03
6690.6282  1.811424e-02  3.848268e+03
6691.0286  1.276907e-02  3.843214e+03
6691.4290 -1.539513e-02  3.813167e+03
6691.8294 -4.284512e-02  3.783901e+03
6692.2299 -1.966126e-02  3.810093e+03
6692.6303 -8.445376e-02  3.739925e+03
6693.0307 -3.855611e-02  3.790994e+03
6693.4311  1.283816e-02  3.848083e+03
6693.8316  4.013469e-02  3.878777e+03
6694.2320 -2.162081e-02  3.811934e+03
6694.6324 -6.651370e-02  3.763559e+03
6695.0328 -1.505291e-02  3.820718e+03
6695.4332  1.988527e-02  3.859779e+03
6695.8337 -1.195356e-02  3.825700e+03
6696.2341 -7.612133e-02  3.756211e+03
6696.6345 -5.236862e-02  3.783019e+03
6697.0349  7.525408e-02  3.923594e+03
6697.4353  6.524421e-02  3.913421e+03
6697.8358 -3.173209e-02  3.807994e+03
6698.2362 -1.450732e-02  3.827649e+03
6698.6366  3.912799e-02  3.887183e+03
6699.0370  3.925374e-02  3.888108e+03
6699.4375 -5.563337e-02  3.784966e+03
6699.8379 -5.253966e-02  3.789140e+03
6700.2383 -1.167671e-01  3.719577e+03
6700.6387 -3.927173e-02  3.805240e+03
6701.0391 -6.410390e-02  3.778825e+03
6701.4396 -1.033761e-01  3.736593e+03
6701.8400 -4.944049e-02  3.796448e+03
6702.2404  7.134184e-02  3.929519e+03
6702.6408  1.524676e-02  3.868858e+03
6703.0412  3.597444e-02  3.892338e+03
6703.4417  3.629806e-02  3.893469e+03
6703.8421  8.581676e-02  3.948482e+03
6704.2425  4.805728e-02  3.907899e+03
6704.6429 -1.327762e-02  3.841493e+03
6705.0434 -4.297085e-02  3.809743e+03
6705.4438  3.268037e-02  3.893373e+03
6705.8442  6.212505e-02  3.926393e+03
6706.2446  4.770213e-02  3.911365e+03
6706.6450 -3.992306e-02  3.816157e+03
6707.0455  1.820427e-02  3.880589e+03
6707.4459  5.101479e-02  3.917290e+03
6707.8463  6.922831e-02  3.938002e+03
6708.2467  7.254191e-02  3.942394e+03
6708.6471  3.899828e-03  3.867971e+03
6709.0476  2.486914e-02  3.891698e+03
6709.4480  1.006806e-01  3.975490e+03
6709.8484  9.952634e-02  3.974982e+03
6710.2488  3.076862e-02  3.900427e+03
6710.6492 -5.924243e-03  3.860991e+03
6711.0497  6.839807e-02  3.943146e+03
6711.4501  8.773924e-02  3.965080e+03
6711.8505  3.214518e-02  3.904937e+03
6712.2509  6.992308e-02  3.947061e+03
6712.6514  4.538892e-02  3.920934e+03
6713.0518  7.908482e-02  3.958583e+03
6713.4522  1.000440e-01  3.982281e+03
6713.8526 -6.458212e-03  3.866370e+03
6714.2530 -1.891951e-03  3.872109e+03
6714.6535  5.362520e-02  3.933652e+03
6715.0539  7.137100e-02  3.953823e+03
6715.4543  1.077156e-01  3.994362e+03
6715.8547 -3.749569e-02  3.836044e+03
6716.2551  1.683351e-02  3.896279e+03
6716.6556  7.126240e-02  3.956620e+03
6717.0560  1.247643e-01  4.015944e+03
6717.4564 -7.680199e-02  3.795893e+03
6717.8568 -7.442779e-02  3.799213e+03
6718.2573 -7.586683e-02  3.798355e+03
6718.6577 -3.239776e-02  3.846682e+03
6719.0581  2.061996e-02  3.905465e+03
6719.4585  1.782838e-02  3.903118e+03
6719.8589 -4.138880e-02  3.838967e+03
6720.2594  3.864542e-02  3.927334e+03
6720.6598 -3.991027e-03  3.881339e+03
6721.0602 -9.705247e-02  3.780112e+03
6721.4606  5.579738e-02  3.948226e+03
6721.8610  3.312276e-02  3.924088e+03
6722.2615 -7.162227e-02  3.810057e+03
6722.6619 -5.750515e-02  3.826211e+03
6723.0623 -4.446009e-02  3.841188e+03
6723.4627  1.050524e-02  3.902078e+03
6723.8632 -7.112807e-03  3.883466e+03
6724.2636  1.270865e-01  4.031134e+03
6724.6640  3.237474e-03  3.896163e+03
6725.0644 -9.444176e-02  3.789852e+03
6725.4648 -6.551281e-02  3.822211e+03
6725.8653 -8.279252e-02  3.803955e+03
6726.2657 -1.041175e-01  3.781266e+03
6726.6661 -1.349069e-01  3.748208e+03
6727.0665 -4.240948e-02  3.850181e+03
6727.4669 -7.740816e-02  3.812506e+03
6727.8674  3.022124e-02  3.931047e+03
6728.2678 -8.584714e-02  3.804572e+03
6728.6682  1.967160e-02  3.920795e+03
6729.0686  2.441062e-02  3.926633e+03
6729.4690  1.815425e-01  4.099381e+03
6729.8695 -5.024189e-02  3.846151e+03
6730.2699  2.615142e-02  3.930461e+03
6730.6703  4.020424e-02  3.946487e+03
6731.0707  6.240220e-02  3.971431e+03
6731.4712  3.275282e-02  3.939583e+03
6731.8716  5.834657e-02  3.968240e+03
6732.2720 -1.613966e-02  3.887277e+03
6732.6724 -1.312529e-01  3.761812e+03
6733.0728 -9.868721e-02  3.798094e+03
6733.4733 -3.970199e-02  3.863310e+03
6733.8737 -6.087923e-03  3.900734e+03
6734.2741 -1.638010e-02  3.890064e+03
6734.6745 -8.318777e-02  3.817490e+03
6735.0749  5.923950e-02  3.974084e+03
6735.4754 -7.828641e-02  3.824046e+03
6735.8758 -2.114121e-02  3.887224e+03
6736.2762 -8.209743e-02  3.821044e+03
6736.6766 -1.042256e-01  3.797388e+03
6737.0771  2.474240e-02  3.939221e+03
6737.4775 -9.609873e-02  3.807438e+03
6737.8779 -7.001938e-02  3.836571e+03
6738.2783  2.475466e-02  3.940941e+03
6738.6787 -8.381060e-02  3.822591e+03
6739.0792  4.019522e-02  3.958970e+03
6739.4796 -3.436230e-02  3.877860e+03
6739.8800  1.821792e-02  3.935999e+03
6740.2804  7.336655e-03  3.924625e+03
6740.6808  1.811345e-02  3.936969e+03
6741.0813 -2.408948e-02  3.891280e+03
6741.4817  1.136031e-02  3.930639e+03
6741.8821 -6.440829e-02  3.848177e+03
6742.2825 -6.863629e-02  3.844069e+03
6742.6830 -4.551649e-02  3.869910e+03
6743.0834 -2.788756e-02  3.889732e+03
6743.4838  4.014302e-02  3.964754e+03
6743.8842 -1.977312e-02  3.899633e+03
6744.2846 -3.747291e-03  3.917686e+03
6744.6851 -6.104349e-03  3.915599e+03
6745.0855  2.639556e-03  3.925667e+03
6745.4859  5.559020e-02  3.984149e+03
6745.8863 -3.674340e-02  3.883498e+03
6746.2867 -1.103917e-01  3.803309e+03
6746.6872 -8.927562e-02  3.826908e+03
6747.0876 -5.587278e-02  3.863960e+03
6747.4880 -3.108994e-02  3.891566e+03
6747.8884 -3.988443e-02  3.882391e+03
6748.2888 -1.967872e-02  3.904973e+03
6748.6893 -5.460971e-02  3.867161e+03
6749.0897 -2.261311e-02  3.902648e+03
6749.4901  2.507861e-03  3.930599e+03
6749.8905 -4.164462e-02  3.882671e+03
6750.2910  1.337266e-03  3.930174e+03
6750.6914  1.849680e-02  3.949390e+03
6751.0918 -7.508490e-02  3.847307e+03
6751.4922  6.522248e-02  4.001394e+03
6751.8926 -2.615951e-02  3.901710e+03
6752.2931 -2.890282e-02  3.899105e+03
6752.6935  9.762479e-03  3.941849e+03
6753.0939  7.761854e-02  4.016559e+03
6753.4943  1.165644e-01  4.059600e+03
6753.8947 -2.717497e-02  3.902542e+03
6754.2952 -6.395860e-02  3.862625e+03
6754.6956 -1.790637e-02  3.913433e+03
6755.0960 -3.615108e-03  3.929447e+03
6755.4964 -1.589474e-02  3.916353e+03
6755.8969 -2.582493e-02  3.905826e+03
6756.2973  5.836614e-02  3.998383e+03
6756.6977 -1.315565e-02  3.920385e+03
6757.0981 -2.867313e-02  3.903721e+03
6757.4985 -2.805703e-02  3.904723e+03
6757.8990  4.710259e-02  3.987365e+03
6758.2994  3.045993e-02  3.969451e+03
6758.6998 -7.574214e-02  3.853438e+03
6759.1002 -6.260994e-02  3.868125e+03
6759.5006 -4.606231e-02  3.886546e+03
6759.9011 -2.605510e-02  3.908751e+03
6760.3015 -4.082653e-02  3.892857e+03
6760.7019 -2.908007e-02  3.906001e+03
6761.1023 -1.688326e-01  3.753205e+03
6761.5028 -1.354330e-02  3.923558e+03
6761.9032 -8.902820e-02  3.841141e+03
6762.3036  2.414401e-03  3.941551e+03
6762.7040 -1.380393e-02  3.924035e+03
6763.1044  8.629864e-03  3.948848e+03
6763.5049  2.239589e-02  3.964161e+03
6763.9053  1.550432e-02  3.956841e+03
6764.3057 -5.746407e-02  3.877143e+03
6764.7061 -8.528376e-02  3.846888e+03
6765.1065  1.019314e-01  4.052152e+03
6765.5070  2.474376e-02  3.967813e+03
6765.9074  6.620073e-02  4.013417e+03
6766.3078 -3.001776e-02  3.908220e+03
6766.7082  8.324718e-02  4.032461e+03
6767.1087 -2.341029e-02  3.915818e+03
6767.5091 -4.584876e-02  3.891412e+03
6767.9095 -6.849808e-02  3.866769e+03
6768.3099 -9.082413e-02  3.842472e+03
6768.7103 -8.176342e-03  3.933146e+03
6769.1108 -6.615462e-02  3.869787e+03
6769.5112 -5.170659e-02  3.885749e+03
6769.9116 -2.496743e-02  3.915167e+03
6770.3120  2.278991e-02  3.967598e+03
6770.7124 -1.070219e-01  3.825534e+03
6771.1129 -1.651620e-02  3.924774e+03
6771.5133 -1.167152e-01  3.815130e+03
6771.9137 -2.377515e-02  3.917023e+03
6772.3141 -1.909459e-02  3.922239e+03
6772.7145  4.750152e-02  3.995263e+03
6773.1150  1.665487e-02  3.961553e+03
6773.5154  5.456161e-03  3.949356e+03
6773.9158  4.272565e-02  3.990239e+03
6774.3162  6.335557e-03  3.950436e+03
6774.7167 -2.673740e-02  3.914259e+03
6775.1171  3.581123e-03  3.947508e+03
6775.5175 -9.181269e-02  3.843058e+03
6775.9179 -5.146078e-02  3.887281e+03
6776.3183 -1.489108e-02  3.927355e+03
6776.7188 -3.045353e-02  3.910323e+03
6777.1192  1.359295e-02  3.958572e+03
6777.5196 -5.052314e-02  3.888345e+03
6777.9200  2.887911e-02  3.975304e+03
6778.3204  5.043162e-02  3.998895e+03
6778.7209  6.387573e-02  4.013597e+03
6779.1213  6.254891e-02  4.012113e+03
6779.5217  8.550388e-03  3.952932e+03
6779.9221  2.915567e-02  3.975456e+03
6780.3226  1.270038e-02  3.957381e+03
6780.7230  3.014760e-02  3.976432e+03
6781.1234  5.919695e-02  4.008183e+03
6781.5238  6.123726e-02  4.010345e+03
6781.9242  4.397000e-02  3.991352e+03
6782.3247 -2.384374e-02  3.916988e+03
6782.7251  6.215744e-02  4.011089e+03
6783.1255  3.696384e-02  3.983393e+03
6783.5259  5.953747e-02  4.008008e+03
6783.9263 -5.028269e-02  3.887606e+03
6784.3268 -1.030754e-01  3.829659e+03
6784.7272 -6.895631e-02  3.866898e+03
6785.1276 -5.625809e-03  3.936124e+03
6785.5280  4.303351e-02  3.989274e+03
6785.9285 -1.806822e-02  3.922197e+03
6786.3289  4.834847e-02  3.994781e+03
6786.7293  3.869829e-02  3.984044e+03
6787.1297  9.553195e-02  4.046118e+03
6787.5301 -1.003313e-01  3.831409e+03
6787.9306 -8.898313e-03  3.931365e+03
6788.3310  2.311364e-02  3.966230e+03
6788.7314  7.447228e-02  4.022278e+03
6789.1318  1.201705e-01  4.072119e+03
6789.5322 -1.728498e-02  3.921347e+03
6789.9327  5.919763e-02  4.004891e+03
6790.3331  1.014058e-01  4.050888e+03
6790.7335  2.266435e-02  3.964403e+03
6791.1339 -1.471370e-01  3.778174e+03
6791.5343  1.135980e-01  4.063498e+03
6791.9348  3.945687e-02  3.982030e+03
6792.3352 -1.137113e-02  3.926089e+03
6792.7356 -5.138052e-03  3.932639e+03
6793.1360  5.996136e-02  4.003657e+03
6793.5365 -6.672799e-02  3.864605e+03
6793.9369 -9.010374e-03  3.927523e+03
6794.3373  5.673647e-02  3.999229e+03
6794.7377 -8.154098e-02  3.847463e+03
6795.1381  4.424048e-02  3.984909e+03
6795.5386  5.744307e-02  3.999043e+03
6795.9390  3.629753e-02  3.975548e+03
6796.3394 -5.485367e-02  3.875370e+03
6796.7398  1.749456e-02  3.954263e+03
6797.1402  7.099249e-02  4.012503e+03
6797.5407  1.146955e-01  4.060007e+03
6797.9411  1.106356e-01  4.055190e+03
6798.3415  8.647205e-03  3.943107e+03
6798.7419  6.237085e-02  4.001566e+03
6799.1424  1.031673e-01  4.045858e+03
6799.5428  5.107309e-02  3.988402e+03
6799.9432  7.276289e-02  4.011754e+03
6800.3436 -4.062645e-02  3.887148e+03
6800.7440 -7.589664e-02  3.848098e+03
6801.1445  2.852410e-02  3.962043e+03
6801.5449  7.147227e-02  4.008651e+03
6801.9453  5.756417e-02  3.992978e+03
6802.3457 -3.387479e-02  3.892380e+03
6802.7461 -2.627231e-02  3.900254e+03
6803.1466 -3.707238e-02  3.887965e+03
6803.5470 -8.545174e-03  3.918744e+03
6803.9474 -2.876457e-02  3.896124e+03
6804.3478  5.719959e-02  3.989800e+03
6804.7483 -5.739023e-02  3.863804e+03
6805.1487 -1.931570e-03  3.924054e+03
6805.5491  8.684058e-02  4.020785e+03
6805.9495  2.795782e-02  3.955785e+03
6806.3499 -1.998813e-02  3.902757e+03
6806.7504  4.294405e-02  3.971167e+03
6807.1508  7.943290e-02  4.010606e+03
6807.5512 -4.451200e-02  3.874319e+03
6807.9516  8.279630e-02  4.013219e+03
6808.3520  3.057997e-02  3.955482e+03
6808.7525  5.472735e-02  3.981378e+03
6809.1529 -1.539649e-02  3.904015e+03
6809.5533  4.628799e-02  3.971013e+03
6809.9537  1.865452e-01  4.124064e+03
6810.3541  1.556332e-01  4.089630e+03
6810.7546  1.697291e-01  4.104487e+03
6811.1550 -3.182458e-02  3.883139e+03
6811.5554  2.519917e-02  3.945002e+03
6811.9558  2.575304e-02  3.945008e+03
6812.3563 -4.769434e-03  3.910970e+03
6812.7567  3.005008e-02  3.948495e+03
6813.1571  1.862630e-02  3.935364e+03
6813.5575  8.533116e-02  4.007800e+03
6813.9579  1.047446e-01  4.028433e+03
6814.3584  4.128697e-02  3.958293e+03
6814.7588  4.637202e-02  3.963221e+03
6815.1592 -4.323049e-03  3.907048e+03
6815.5596  1.478183e-02  3.927321e+03
6815.9600  1.445144e-02  3.926301e+03
6816.3605 -4.492024e-02  3.860608e+03
6816.7609 -5.920196e-03  3.902655e+03
6817.1613  6.420112e-02  3.978783e+03
6817.5617  9.209221e-02  4.008651e+03
6817.9622  3.086419e-02  3.940904e+03
6818.3626  2.263684e-02  3.931202e+03
6818.7630  1.013228e-02  3.916810e+03
6819.1634  4.824949e-02  3.957858e+03
6819.5638 -7.072902e-02  3.826837e+03
6819.9643  4.353911e-02  3.951282e+03
6820.3647  8.112127e-02  3.991729e+03
6820.7651  1.249101e-01  4.038970e+03
6821.1655  3.754320e-02  3.942552e+03
6821.5659  6.336697e-02  3.970106e+03
6821.9664  3.462751e-02  3.937893e+03
6822.3668 -7.613280e-03  3.890888e+03
6822.7672  4.400760e-02  3.946683e+03
6823.1676  4.176006e-02  3.943472e+03
6823.5681  2.986545e-02  3.929691e+03
6823.9685  1.057132e-01  4.012008e+03
6824.3689  1.175337e-01  4.024192e+03
6824.7693  2.801031e-02  3.925372e+03
6825.1697  2.798580e-02  3.924574e+03
6825.5702  9.207015e-02  3.993990e+03
6825.9706  1.254262e-01  4.029746e+03
6826.3710  8.409613e-02  3.983694e+03
6826.7714 -5.677844e-02  3.828609e+03
6827.1718 -5.156378e-02  3.833530e+03
6827.5723  8.581073e-02  3.983200e+03
6827.9727  6.444243e-02  3.958997e+03
6828.3731  7.450255e-02  3.969213e+03
6828.7735  1.922359e-02  3.907861e+03
6829.1739 -1.455108e-02  3.870059e+03
6829.5744  1.174112e-01  4.013783e+03
6829.9748  9.028880e-02  3.983260e+03
6830.3752  1.550659e-03  3.885247e+03
6830.7756 -9.890377e-02  3.774397e+03
6831.1761  7.936420e-02  3.968826e+03
6831.5765 -1.159606e-01  3.754060e+03
6831.9769  1.361087e-01  4.029316e+03
6832.3773  8.768279e-02  3.975441e+03
6832.7777  2.663800e-02  3.907741e+03
6833.1782  2.772726e-02  3.908094e+03
6833.5786  2.306504e-02  3.902144e+03
6833.9790  1.787742e-02  3.895616e+03
6834.3794  4.198561e-02  3.921172e+03
6834.7798  1.654436e-01  4.055543e+03
6835.1803  1.597753e-01  4.048481e+03
6835.5807  7.028387e-02  3.949606e+03
6835.9811 -1.469460e-01  3.710819e+03
6836.3815 -1.119649e-01  3.748273e+03
6836.7820  1.231508e-01  4.004929e+03
6837.1824  5.039727e-02  3.924379e+03
6837.5828  8.391384e-02  3.960223e+03
6837.9832  5.342693e-02  3.925962e+03
6838.3836  6.115983e-02  3.933562e+03
6838.7841  8.426042e-02  3.957992e+03
6839.1845  4.954837e-02  3.919099e+03
6839.5849  1.101017e-01  3.984547e+03
6839.9853  4.202358e-02  3.909106e+03
6840.3857  6.799343e-02  3.936672e+03
6840.7862  5.394342e-02  3.920405e+03
6841.1866 -6.233246e-02  3.792169e+03
6841.5870  5.561950e-02  3.920479e+03
6841.9874  5.065887e-02  3.914163e+03
6842.3879  3.681269e-02  3.898114e+03
6842.7883  4.922147e-02  3.910821e+03
6843.1887  1.849199e-02  3.876279e+03
6843.5891  1.383409e-02  3.870292e+03
6843.9895 -5.329234e-03  3.848416e+03
6844.3900 -4.604353e-02  3.802936e+03
6844.7904  7.040440e-02  3.929592e+03
6845.1908  6.614739e-02  3.924042e+03
6845.5912  1.038502e-01  3.964450e+03
6845.9916  1.076565e-01  3.967731e+03
6846.3921  6.825240e-02  3.923685e+03
6846.7925  8.853116e-02  3.945008e+03
6847.1929  1.549675e-01  4.016887e+03
6847.5933  3.994204e-02  3.890014e+03
6847.9938  7.334462e-03  3.853412e+03
6848.3942  8.614282e-02  3.938843e+03
6848.7946  9.166146e-02  3.944001e+03
6849.1950  4.753824e-03  3.847927e+03
6849.5954  9.106792e-02  3.941580e+03
6849.9959  7.080022e-02  3.918497e+03
6850.3963  8.891176e-02  3.937451e+03
6850.7967  1.824079e-01  4.038973e+03
6851.1971  5.871702e-02  3.902615e+03
6851.5975  1.875245e-01  4.042815e+03
6851.9980  1.017051e-01  3.947939e+03
6852.3984  1.036998e-01  3.949246e+03
6852.7988  4.561558e-02  3.884751e+03
6853.1992 -4.135513e-02  3.788618e+03
6853.5996  4.684813e-02  3.884353e+03
6854.0001  1.610731e-01  4.008590e+03
6854.4005  2.581131e-01  4.114006e+03
6854.8009  1.853679e-01  4.033461e+03
6855.2013  1.149570e-01  3.955475e+03
6855.6018  1.138016e-01  3.953345e+03
6856.0022  1.094732e-01  3.947743e+03
6856.4026  1.285295e-01  3.967755e+03
6856.8030  1.109799e-01  3.947676e+03
6857.2034  9.684423e-02  3.931338e+03
6857.6039  9.123919e-02  3.924346e+03
6858.0043  8.563157e-02  3.917354e+03
6858.4047  8.002105e-02  3.910362e+03
6858.8051  7.440733e-02  3.903369e+03
6859.2055  6.879011e-02  3.896375e+03
6859.6060  6.316996e-02  3.889380e+03
6860.0064  5.754612e-02  3.882385e+03
6860.4068  5.191964e-02  3.875390e+03
6860.8072  4.628865e-02  3.868393e+03
6861.2077  4.065417e-02  3.861396e+03
6861.6081  3.501768e-02  3.854399e+03
6862.0085  2.937621e-02  3.847401e+03
6862.4089  2.373078e-02  3.840403e+03
6862.8093  1.808153e-02  3.833403e+03
6863.2098  1.242860e-02  3.826404e+03
6863.6102  6.771248e-03  3.819403e+03
6864.0106  1.110050e-03  3.812403e+03
6864.4110 -4.554851e-03  3.805402e+03
6864.8114 -1.022443e-02  3.798400e+03
6865.2119 -1.589854e-02  3.791398e+03
6865.6123 -2.157727e-02  3.784395e+03
6866.0127 -2.726070e-02  3.777391e+03
6866.4131 -3.294846e-02  3.770386e+03
6866.8136 -3.864131e-02  3.763381e+03
6867.2140 -4.433865e-02  3.756376e+03
6867.6144 -5.004036e-02  3.749371e+03
6868.0148 -5.574739e-02  3.742364e+03
6868.4152 -6.145959e-02  3.735357e+03
6868.8157 -6.717662e-02  3.728350e+03
6869.2161 -7.289966e-02  3.721341e+03
6869.6165 -7.862723e-02  3.714333e+03
6870.0169 -8.436075e-02  3.707323e+03
6870.4173 -9.009873e-02  3.700313e+03
6870.8178 -9.584259e-02  3.693303e+03
6871.2182 -1.015924e-01  3.686292e+03
6871.6186 -1.073476e-01  3.679281e+03
6872.0190 -1.131087e-01  3.672268e+03
6872.4194 -1.188766e-01  3.665254e+03
6872.8199 -1.246488e-01  3.658242e+03
6873.2203 -1.304271e-01  3.651228e+03
6873.6207 -1.362125e-01  3.644213e+03
6874.0211 -1.420033e-01  3.637198e+03
6874.4216 -1.478008e-01  3.630182e+03
6874.8220 -1.536041e-01  3.623166e+03
6875.2224 -1.594140e-01  3.616149e+03
6875.6228 -1.652301e-01  3.609132e+03
6876.0232 -1.710524e-01  3.602114e+03
6876.4237 -1.768821e-01  3.595095e+03
6876.8241 -1.827186e-01  3.588075e+03
6877.2245 -1.885613e-01  3.581056e+03
6877.6249 -1.944098e-01  3.574036e+03
6878.0253 -2.002664e-01  3.567015e+03
6878.4258 -2.061293e-01  3.559994e+03
6878.8262 -2.120242e-01  3.552945e+03
6879.2266 -2.134907e-01  3.550753e+03
6879.6270 -1.902947e-01  3.575581e+03
6880.0275 -2.401276e-01  3.520429e+03
6880.4279 -1.986633e-01  3.565281e+03
6880.8283 -2.531128e-01  3.505087e+03
6881.2287 -1.628439e-01  3.603409e+03
6881.6291 -3.072840e-02  3.747572e+03
6882.0296  8.402144e-02  3.872723e+03
6882.4300  2.020745e-01  4.001499e+03
6882.8304 -3.468164e-02  3.741666e+03
6883.2308  3.901786e-02  3.821878e+03
6883.6312  5.301762e-02  3.836710e+03
6884.0317  4.447477e-02  3.826859e+03
6884.4321 -5.381705e-02  3.718715e+03
6884.8325 -1.712031e-01  3.589666e+03
6885.2329 -2.298940e-01  3.524913e+03
6885.6334 -1.585165e-01  3.602631e+03
6886.0338 -1.913985e-01  3.566163e+03
6886.4342 -1.908354e-01  3.566335e+03
6886.8346 -2.979857e-01  3.448538e+03
6887.2350 -4.593021e-01  3.271423e+03
6887.6355 -3.692578e-01  3.369628e+03
6888.0359 -3.004745e-01  3.444555e+03
6888.4363 -2.975464e-01  3.447360e+03
6888.8367 -2.778975e-01  3.468489e+03
6889.2371 -3.299313e-01  3.411112e+03
6889.6376 -4.186558e-01  3.313558e+03
6890.0380 -4.345542e-01  3.295778e+03
6890.4384 -5.077664e-01  3.215232e+03
6890.8388 -2.315187e-01  3.517454e+03
6891.2392 -2.130768e-01  3.537314e+03
6891.6397 -1.570056e-01  3.598397e+03
6892.0401 -1.615800e-01  3.593066e+03
6892.4405 -8.670743e-02  3.674760e+03
6892.8409 -3.105332e-01  3.429304e+03
6893.2414 -4.345587e-01  3.293167e+03
6893.6418 -4.101809e-01  3.319584e+03
6894.0422 -8.164472e-01  2.874331e+03
6894.4426 -7.277249e-01  2.971242e+03
6894.8430 -3.517057e-01  3.382835e+03
6895.2435 -7.736037e-02  3.683075e+03
6895.6439 -6.017445e-02  3.701662e+03
6896.0443 -1.675721e-01  3.583803e+03
6896.4447 -2.060470e-01  3.541445e+03
6896.8451 -2.863898e-01  3.453239e+03
6897.2456 -3.373711e-01  3.397201e+03
6897.6460 -3.252765e-01  3.410260e+03
6898.0464 -3.261380e-01  3.409137e+03
6898.4468 -1.319198e-01  3.621693e+03
6898.8473 -2.172687e-02  3.742227e+03
6899.2477 -3.287574e-03  3.762274e+03
6899.6481 -5.338228e-02  3.707267e+03
6900.0485 -1.890641e-01  3.558527e+03
6900.4489 -3.198970e-01  3.415108e+03
6900.8494 -4.187546e-01  3.306721e+03
6901.2498 -4.217820e-01  3.303306e+03
6901.6502 -4.044044e-01  3.322250e+03
6902.0506 -1.609724e-01  3.588798e+03
6902.4510 -1.422089e-01  3.609281e+03
6902.8515  1.612407e-01  3.941585e+03
6903.2519  9.641649e-02  3.870535e+03
6903.6523 -1.481561e-02  3.748666e+03
6904.0527 -1.146150e-01  3.639328e+03
6904.4532 -1.584398e-01  3.591309e+03
6904.8536 -2.475668e-01  3.493681e+03
6905.2540 -3.237532e-01  3.410237e+03
6905.6544 -3.288871e-01  3.404625e+03
6906.0548 -1.583505e-01  3.591434e+03
6906.4553 -6.014047e-02  3.699035e+03
6906.8557 -4.429419e-02  3.716434e+03
6907.2561  7.572321e-02  3.847940e+03
6907.6565  1.283128e-01  3.905604e+03
6908.0569  3.916589e-02  3.808036e+03
6908.4574 -9.469364e-03  3.754850e+03
6908.8578 -3.931651e-02  3.722253e+03
6909.2582 -2.393329e-01  3.503282e+03
6909.6586 -2.738526e-01  3.465588e+03
6910.0590 -1.409290e-01  3.611302e+03
6910.4595 -1.440309e-01  3.608039e+03
6910.8599 -8.990832e-02  3.667464e+03
6911.2603  7.309462e-02  3.846155e+03
6911.6607  8.635364e-02  3.860843e+03
6912.0612  2.779354e-01  4.070856e+03
6912.4616  1.900239e-01  3.974754e+03
6912.8620  8.021182e-02  3.854675e+03
6913.2624 -2.783392e-02  3.736541e+03
6913.6628 -1.517591e-01  3.601024e+03
6914.0633 -1.789221e-01  3.571500e+03
6914.4637 -1.863730e-01  3.563576e+03
6914.8641 -1.448847e-01  3.609265e+03
6915.2645 -9.642269e-03  3.757652e+03
6915.6649  7.976735e-02  3.855849e+03
6916.0654  1.746852e-01  3.960089e+03
6916.4658  1.958733e-01  3.983583e+03
6916.8662  1.311307e-01  3.912970e+03
6917.2666  1.027796e-01  3.882225e+03
6917.6671  4.524007e-02  3.819521e+03
6918.0675  2.014382e-02  3.792361e+03
6918.4679  2.791286e-02  3.801208e+03
6918.8683 -1.445589e-01  3.612650e+03
6919.2687 -1.942014e-01  3.558635e+03
6919.6692 -1.362621e-01  3.622463e+03
6920.0696 -3.535306e-02  3.733364e+03
6920.4700 -5.281373e-02  3.714627e+03
6920.8704  4.411673e-02  3.821190e+03
6921.2708  1.050803e-01  3.888370e+03
6921.6713  2.096266e-01  4.003294e+03
6922.0717  1.771484e-01  3.968147e+03
6922.4721  1.807465e-01  3.972523e+03
6922.8725  1.147914e-01  3.900729e+03
6923.2730  1.075830e-01  3.893288e+03
6923.6734 -2.217448e-02  3.751631e+03
6924.0738 -5.824712e-02  3.712594e+03
6924.4742 -6.623941e-02  3.704323e+03
6924.8746 -6.705076e-02  3.703927e+03
6925.2751  8.164709e-02  3.867295e+03
6925.6755  1.347694e-01  3.925990e+03
6926.0759  1.580607e-01  3.952020e+03
6926.4763  1.381798e-01  3.930774e+03
6926.8767  2.397412e-01  4.042551e+03
6927.2772  2.647666e-01  4.070508e+03
6927.6776  2.607199e-01  4.066632e+03
6928.0780  6.106665e-02  3.848519e+03
6928.4784  9.195227e-02  3.882921e+03
6928.8789  4.013642e-02  3.826751e+03
6929.2793  2.844554e-02  3.814537e+03
6929.6797 -4.480541e-02  3.734906e+03
6930.0801 -1.223070e-02  3.771193e+03
6930.4805 -4.577181e-02  3.735073e+03
6930.8810 -2.087394e-02  3.762969e+03
6931.2814  1.149190e-01  3.912335e+03
6931.6818  1.425529e-01  3.943244e+03
6932.0822  9.373306e-02  3.890423e+03
6932.4826  2.448133e-02  3.815231e+03
6932.8831  2.305816e-02  3.814339e+03
6933.2835  4.381080e-02  3.837744e+03
6933.6839 -3.861722e-02  3.748144e+03
6934.0843 -3.379441e-02  3.754117e+03
6934.4847 -4.474697e-02  3.742819e+03
6934.8852 -4.987125e-02  3.737913e+03
6935.2856 -1.320296e-02  3.778789e+03
6935.6860  1.396869e-01  3.946968e+03
6936.0864  2.053303e-01  4.019595e+03
6936.4869  1.712916e-01  3.983049e+03
6936.8873  4.055242e-02  3.840596e+03
6937.2877  1.885021e-01  4.003394e+03
6937.6881  2.041337e-01  4.021272e+03
6938.0885  3.007834e-02  3.831397e+03
6938.4890 -2.144538e-02  3.775736e+03
6938.8894  6.154639e-02  3.867414e+03
6939.2898  9.495807e-02  3.904795e+03
6939.6902  8.007164e-02  3.889282e+03
6940.0906 -4.171110e-02  3.756694e+03
6940.4911 -4.538643e-02  3.753474e+03
6940.8915  1.598053e-02  3.821500e+03
6941.2919  3.053313e-02  3.838257e+03
6941.6923 -3.462520e-02  3.767715e+03
6942.0928 -6.885355e-02  3.731055e+03
6942.4932 -8.823483e-02  3.710664e+03
6942.8936 -1.603409e-02  3.790586e+03
6943.2940  1.944103e-02  3.830290e+03
6943.6944  2.218479e-02  3.834149e+03
6944.0949  9.219164e-02  3.911686e+03
6944.4953  6.525639e-02  3.883050e+03
6944.8957 -1.466789e-02  3.796380e+03
6945.2961  7.014371e-02  3.890149e+03
6945.6965  5.097715e-02  3.870037e+03
6946.0970  1.413084e-01  3.969862e+03
6946.4974  1.255506e-01  3.953494e+03
6946.8978  7.840000e-02  3.902746e+03
6947.2982  1.127685e-01  3.941291e+03
6947.6987  9.494199e-02  3.922671e+03
6948.0991  3.643507e-03  3.823583e+03
6948.4995 -4.287462e-02  3.773547e+03
6948.8999 -5.829977e-02  3.757571e+03
6949.3003  6.227396e-02  3.890557e+03
6949.7008  1.387068e-01  3.975200e+03
6950.1012 -3.986297e-01  3.387594e+03
6950.5016  3.389607e-02  3.862268e+03
6950.9020  3.783970e-02  3.867527e+03
6951.3024  8.580610e-02  3.921006e+03
6951.7029  5.611583e-02  3.889433e+03
6952.1033  1.118785e-01  3.951458e+03
6952.5037  1.349611e-01  3.977693e+03
6952.9041  2.194135e-01  4.071149e+03
6953.3045  1.523892e-01  3.998697e+03
6953.7050  7.860875e-02  3.918849e+03
6954.1054  4.699773e-02  3.885190e+03
6954.5058  6.573183e-02  3.906677e+03
6954.9062  6.163357e-02  3.903159e+03
6955.3067  3.887410e-03  3.840883e+03
6955.7071  1.748065e-02  3.856746e+03
6956.1075  8.906323e-03  3.848332e+03
6956.5079  4.738786e-02  3.891460e+03
6956.9083  5.801920e-03  3.846893e+03
6957.3088  4.143908e-03  3.846060e+03
6957.7092  9.993137e-02  3.951960e+03
6958.1096  6.093390e-02  3.910233e+03
6958.5100  1.305568e-01  3.987478e+03
6958.9104  5.091761e-02  3.901240e+03
6959.3109  2.535042e-02  3.874227e+03
6959.7113  9.201115e-02  3.948231e+03
6960.1117  4.782845e-02  3.900832e+03
6960.5121  1.961493e-02  3.870923e+03
6960.9126  2.413110e-02  3.876864e+03
6961.3130  3.802952e-02  3.893082e+03
6961.7134 -4.806400e-02  3.799781e+03
6962.1138 -2.016282e-02  3.831336e+03
6962.5142  4.474867e-02  3.903429e+03
6962.9147  1.016225e-01  3.966718e+03
6963.3151  1.808109e-01  4.054448e+03
6963.7155  9.991717e-02  3.966843e+03
6964.1159  7.467521e-02  3.940191e+03
6964.5163  1.203742e-01  3.991240e+03
6964.9168  2.026878e-01  4.082392e+03
6965.3172 -3.167868e-02  3.826688e+03
6965.7176  9.936825e-02  3.971215e+03
6966.1180  1.599418e-01  4.038553e+03
6966.5185  1.035936e-01  3.977827e+03
6966.9189  1.752319e-01  4.057282e+03
6967.3193  1.079240e-01  3.984550e+03
6967.7197  7.834196e-02  3.953137e+03
6968.1201  6.257209e-02  3.936850e+03
6968.5206  1.286223e-01  4.010179e+03
6968.9210  1.358080e-01  4.019032e+03
6969.3214  8.023084e-02  3.959140e+03
6969.7218  1.691192e-01  4.057477e+03
6970.1222  1.889882e-01  4.080215e+03
6970.5227  1.145350e-01  3.999642e+03
6970.9231  1.742612e-01  4.066031e+03
6971.3235  1.825348e-01  4.076062e+03
6971.7239  9.318116e-02  3.979161e+03
6972.1243 -9.467220e-02  3.774372e+03
6972.5248  8.201467e-02  3.968856e+03
6972.9252  1.182077e-01  4.009455e+03
6973.3256  6.748542e-02  3.954855e+03
6973.7260  1.342128e-01  4.028892e+03
6974.1265  9.703171e-02  3.989116e+03
6974.5269  1.284129e-01  4.024432e+03
6974.9273  6.732296e-02  3.958462e+03
6975.3277  3.197046e-02  3.920678e+03
6975.7281 -2.636921e-02  3.857713e+03
6976.1286 -1.809565e-02  3.867704e+03
6976.5290  5.902873e-02  3.953102e+03
6976.9294  1.645889e-01  4.069642e+03
6977.3298  1.160539e-01  4.017399e+03
6977.7302  1.784731e-01  4.086678e+03
6978.1307  3.247900e-02  3.927680e+03
6978.5311  4.610766e-03  3.898059e+03
6978.9315  4.622257e-02  3.944534e+03
6979.3319  2.834943e-02  3.925851e+03
6979.7324  3.101758e-03  3.899085e+03
6980.1328  7.055649e-02  3.973851e+03
6980.5332  1.760970e-02  3.916736e+03
6980.9336  6.357622e-02  3.967955e+03
6981.3340  1.952738e-01  4.113068e+03
6981.7345  1.000000e+00  4.995335e+03
6982.1349  8.908042e-01  4.876590e+03
6982.5353  6.920524e-03  3.909334e+03
6982.9357 -5.604284e-02  3.841215e+03
6983.3361  5.440375e-02  3.963023e+03
6983.7366  9.259089e-02  4.005681e+03
6984.1370  4.270475e-02  3.951866e+03
6984.5374 -7.888892e-03  3.897271e+03
6984.9378  3.433539e-02  3.944331e+03
6985.3383  1.230076e-02  3.921003e+03
6985.7387 -1.147239e-03  3.907073e+03
6986.1391  3.645105e-02  3.949047e+03
6986.5395  9.859186e-02  4.017895e+03
6986.9399  9.277614e-03  3.920849e+03
6987.3404 -1.145400e-02  3.898914e+03
6987.7408 -1.597757e-03  3.910474e+03
6988.1412 -1.011025e-02  3.901908e+03
6988.5416  9.163207e-03  3.923769e+03
6988.9420  4.262402e-03  3.919144e+03
6989.3425  2.163246e-02  3.938905e+03
6989.7429 -7.187593e-02  3.837214e+03
6990.1433 -8.979332e-02  3.818310e+03
6990.5437 -8.534890e-02  3.823891e+03
6990.9441  5.826836e-03  3.924459e+03
6991.3446 -3.312844e-02  3.882489e+03
6991.7450 -4.790547e-02  3.866993e+03
6992.1454  7.509519e-05  3.920226e+03
6992.5458 -5.879354e-02  3.856421e+03
6992.9463 -1.271347e-01  3.782232e+03
6993.3467 -9.758073e-02  3.815259e+03
6993.7471 -1.467684e-01  3.762032e+03
6994.1475 -1.815597e-01  3.724565e+03
6994.5479 -1.946651e-01  3.710842e+03
6994.9484 -1.670113e-01  3.741754e+03
6995.3488 -8.928868e-02  3.827496e+03
6995.7492  2.418387e-02  3.952386e+03
6996.1496  6.067121e-02  3.992947e+03
6996.5500 -3.511645e-03  3.923236e+03
6996.9505  4.520282e-02  3.977171e+03
6997.3509 -7.563491e-03  3.919947e+03
6997.7513  4.420571e-02  3.977209e+03
6998.1517 -1.101098e-02  3.917283e+03
6998.5522 -1.032040e-01  3.816848e+03
6998.9526 -5.765982e-02  3.867266e+03
6999.3530 -1.055358e-01  3.815352e+03
6999.7534 -9.374162e-02  3.828785e+03
7000.1538 -1.171266e-01  3.803678e+03
7000.5543 -1.456306e-01  3.772954e+03
7000.9547 -2.481746e-02  3.905766e+03
7001.3551  8.911555e-02  4.031033e+03
7001.7555  8.994417e-02  4.032409e+03
7002.1559  4.679728e-02  3.985609e+03
7002.5564  2.240465e-02  3.959341e+03
7002.9568 -2.416258e-02  3.908776e+03
7003.3572 -1.111448e-01  3.813936e+03
7003.7576  9.898934e-03  3.946934e+03
7004.1581 -4.329637e-02  3.889080e+03
7004.5585  7.358458e-02  4.017499e+03
7004.9589  3.029937e-02  3.970480e+03
7005.3593 -1.500554e-01  3.773322e+03
7005.7597 -1.169564e-01  3.809946e+03
7006.1602  1.819757e-02  3.958340e+03
7006.5606  3.511849e-02  3.977226e+03
7006.9610  4.776267e-02  3.991417e+03
7007.3614  2.423093e-02  3.965975e+03
7007.7618  6.048116e-02  4.006002e+03
7008.1623  9.097617e-02  4.039715e+03
7008.5627 -6.578670e-02  3.868318e+03
7008.9631  3.623795e-02  3.980357e+03
7009.3635 -7.171381e-02  3.862402e+03
7009.7640 -1.261726e-02  3.927403e+03
7010.1644  1.337582e-01  4.087989e+03
7010.5648  5.674919e-02  4.003895e+03
7010.9652 -7.553538e-02  3.859249e+03
7011.3656 -7.645636e-03  3.933842e+03
7011.7661  3.609196e-02  3.981970e+03
7012.1665 -2.122643e-02  3.919404e+03
7012.5669 -8.201241e-02  3.853030e+03
7012.9673  1.516061e-02  3.959657e+03
7013.3677  5.081316e-02  3.998891e+03
7013.7682  1.369335e-01  4.093392e+03
7014.1686  4.249933e-02  3.990124e+03
7014.5690 -9.840059e-02  3.835954e+03
7014.9694 -9.730732e-02  3.837296e+03
7015.3698  7.011885e-03  3.951691e+03
7015.7703  8.791443e-05  3.944234e+03
7016.1707 -4.712111e-02  3.892643e+03
7016.5711 -2.093269e-02  3.921433e+03
7016.9715 -1.177206e-01  3.815520e+03
7017.3720 -1.655026e-01  3.763272e+03
7017.7724 -9.351502e-02  3.842198e+03
7018.1728 -1.029669e-01  3.831914e+03
7018.5732 -5.880387e-02  3.880344e+03
7018.9736  4.827482e-03  3.950088e+03
7019.3741  6.059493e-02  4.011210e+03
7019.7745  1.109237e-02  3.957022e+03
7020.1749  1.539031e-02  3.961751e+03
7020.5753  1.523126e-01  4.111733e+03
7020.9757  7.345480e-02  4.025365e+03
7021.3762  8.555586e-02  4.038614e+03
7021.7766  1.473652e-02  3.961032e+03
7022.1770 -1.756824e-02  3.925626e+03
7022.5774  7.680386e-02  4.028958e+03
7022.9779  6.291269e-03  3.951686e+03
7023.3783  2.614347e-02  3.973380e+03
7023.7787  4.390824e-03  3.949496e+03
7024.1791 -5.669201e-02  3.882526e+03
7024.5795 -4.412918e-02  3.896210e+03
7024.9800 -2.351300e-02  3.918707e+03
7025.3804  7.091945e-02  4.022045e+03
7025.7808  2.784860e-02  3.974769e+03
7026.1812  3.788457e-02  3.985653e+03
7026.5816  6.811882e-02  4.018651e+03
7026.9821 -2.443762e-03  3.941239e+03
7027.3825 -4.020427e-02  3.899748e+03
7027.7829 -1.108319e-01  3.822249e+03
7028.1833 -1.102155e-01  3.822775e+03
7028.5838 -7.085378e-02  3.865731e+03
7028.9842 -5.134137e-02  3.886939e+03
7029.3846 -6.185121e-03  3.936226e+03
7029.7850  3.135388e-03  3.946256e+03
7030.1854  4.981526e-02  3.997197e+03
7030.5859 -4.279483e-02  3.895569e+03
7030.9863  6.504511e-03  3.949365e+03
7031.3867  6.849000e-02  4.017049e+03
7031.7871 -2.112537e-02  3.918680e+03
7032.1875  5.185932e-03  3.947277e+03
7032.5880 -2.898564e-03  3.938194e+03
7032.9884 -8.794401e-03  3.931501e+03
7033.3888  1.096202e-02  3.952899e+03
7033.7892  7.316196e-02  4.020778e+03
7034.1896  4.591400e-02  3.990680e+03
7034.5901 -6.606896e-02  3.867767e+03
7034.9905 -4.660804e-02  3.888816e+03
7035.3909  3.527662e-02  3.978231e+03
7035.7913 -1.014729e-02  3.928202e+03
7036.1918 -5.040364e-02  3.883826e+03
7036.5922  2.979595e-02  3.971379e+03
7036.9926  1.362244e-02  3.953370e+03
7037.3930  6.967776e-02  4.014467e+03
7037.7934 -2.972159e-02  3.905292e+03
7038.1939 -6.723749e-03  3.930172e+03
7038.5943 -3.097339e-02  3.903297e+03
7038.9947 -1.106603e-01  3.815698e+03
7039.3951 -3.587638e-02  3.897284e+03
7039.7955 -5.075578e-02  3.880658e+03
7040.1960 -8.069354e-02  3.847535e+03
7040.5964 -4.337728e-02  3.888070e+03
7040.9968 -1.000414e-01  3.825666e+03
7041.3972 -2.070405e-02  3.912218e+03
7041.7977  2.811731e-02  3.965343e+03
7042.1981  4.268053e-02  3.980942e+03
7042.5985 -7.263268e-04  3.933043e+03
7042.9989  6.078191e-02  4.000053e+03
7043.3993  8.034464e-02  4.021117e+03
7043.7998  9.926242e-02  4.041472e+03
7044.2002 -3.738593e-02  3.891435e+03
7044.6006 -6.769759e-02  3.857864e+03
7045.0010  2.794036e-02  3.962241e+03
7045.4014  4.302764e-02  3.978390e+03
7045.8019  9.498090e-02  4.034915e+03
7046.2023  7.889801e-02  4.016919e+03
7046.6027  5.716040e-02  3.992727e+03
7047.0031  7.660908e-02  4.013645e+03
7047.4036 -1.137637e-02  3.916889e+03
7047.8040  9.743755e-02  4.035683e+03
7048.2044  1.609982e-01  4.104911e+03
7048.6048 -8.450427e-02  3.835625e+03
7049.0052  1.523045e-03  3.929458e+03
7049.4057  9.437982e-02  4.030770e+03
7049.8061 -8.607921e-03  3.917575e+03
7050.2065 -6.237156e-02  3.858294e+03
7050.6069 -9.577115e-02  3.821318e+03
7051.0073 -6.422882e-02  3.855470e+03
7051.4078 -7.618167e-03  3.917080e+03
7051.8082  5.903261e-03  3.931495e+03
7052.2086 -4.205960e-02  3.878566e+03
7052.6090 -1.453230e-02  3.908322e+03
7053.0094 -6.196217e-02  3.855978e+03
7053.4099  4.864396e-02  3.976729e+03
7053.8103 -9.912779e-03  3.912200e+03
7054.2107  3.200129e-02  3.957716e+03
7054.6111  9.656986e-02  4.028045e+03
7055.0116  1.000372e-01  4.031453e+03
7055.4120 -1.790025e-02  3.901889e+03
7055.8124 -4.965746e-02  3.866719e+03
7056.2128 -9.677608e-02  3.814725e+03
7056.6132 -6.335566e-02  3.850946e+03
7057.0137 -4.546144e-02  3.870164e+03
7057.4141 -2.555567e-02  3.891586e+03
7057.8145  6.098993e-02  3.986001e+03
7058.2149 -1.058434e-01  3.802896e+03
7058.6153 -7.857357e-02  3.832392e+03
7059.0158  5.379574e-02  3.977004e+03
7059.4162 -4.316034e-02  3.870443e+03
7059.8166 -1.105308e-01  3.796289e+03
7060.2170 -7.453994e-02  3.835349e+03
7060.6175 -1.018674e-01  3.805060e+03
7061.0179 -2.496846e-01  3.642804e+03
7061.4183 -2.861629e-01  3.602499e+03
7061.8187 -1.483232e-01  3.753126e+03
7062.2191 -1.611117e-01  3.738776e+03
7062.6196 -1.290859e-01  3.773515e+03
7063.0200 -1.447701e-01  3.756001e+03
7063.4204 -1.516414e-01  3.748145e+03
7063.8208 -1.800756e-01  3.716675e+03
7064.2212 -2.520596e-01  3.637511e+03
7064.6217 -1.608081e-01  3.737140e+03
7065.0221 -1.665342e-01  3.730557e+03
7065.4225 -1.426766e-01  3.756380e+03
7065.8229 -1.264599e-02  3.898499e+03
7066.2234  1.029470e-01  4.024810e+03
7066.6238  1.373129e-01  4.062158e+03
7067.0242  2.598072e-02  3.939932e+03
7067.4246 -1.451366e-01  3.752229e+03
7067.8250 -1.052509e-01  3.795640e+03
7068.2255 -1.801654e-01  3.713318e+03
7068.6259 -1.902655e-01  3.701992e+03
7069.0263 -2.000317e-01  3.691038e+03
7069.4267 -2.762720e-01  3.607282e+03
7069.8271 -2.430386e-01  3.643437e+03
7070.2276 -2.317251e-01  3.655590e+03
7070.6280 -2.301252e-01  3.657110e+03
7071.0284 -1.490381e-01  3.745698e+03
7071.4288 -1.269716e-01  3.769647e+03
7071.8292 -7.489380e-02  3.826475e+03
7072.2297 -8.056746e-02  3.820055e+03
7072.6301  1.452936e-02  3.924015e+03
7073.0305  1.339268e-02  3.922578e+03
7073.4309 -4.289932e-02  3.860737e+03
7073.8314  2.221846e-02  3.931882e+03
7074.2318  8.243274e-02  3.997664e+03
7074.6322  3.117058e-02  3.941354e+03
7075.0326  1.128128e-02  3.919414e+03
7075.4330  3.937963e-02  3.950041e+03
7075.8335  1.037568e-01  4.020412e+03
7076.2339  1.542451e-02  3.923530e+03
7076.6343 -2.645027e-02  3.877539e+03
7077.0347  3.931318e-02  3.949451e+03
7077.4351 -5.548283e-02  3.845512e+03
7077.8356 -7.183875e-02  3.827495e+03
7078.2360 -2.744808e-02  3.876021e+03
7078.6364 -1.003385e-02  3.895008e+03
7079.0368  9.452397e-02  4.009450e+03
7079.4373  4.980094e-02  3.960394e+03
7079.8377 -3.062810e-03  3.902430e+03
7080.2381  1.043141e-02  3.917156e+03
7080.6385  9.105883e-02  4.005419e+03
7081.0389  8.844848e-02  4.002521e+03
7081.4394  1.756572e-02  3.924853e+03
7081.8398 -3.725502e-02  3.864786e+03
7082.2402  5.822050e-02  3.969344e+03
7082.6406 -4.285608e-02  3.858630e+03
7083.0410 -1.947289e-02  3.884243e+03
7083.4415  3.642221e-02  3.945473e+03
7083.8419  6.088644e-02  3.972286e+03
7084.2423  3.845002e-02  3.947738e+03
7084.6427  6.555095e-02  3.977455e+03
7085.0432  7.181554e-03  3.913565e+03
7085.4436  1.132218e-02  3.918150e+03
7085.8440 -8.260261e-03  3.896760e+03
7086.2444  6.087476e-02  3.972548e+03
7086.6448  6.554579e-02  3.977738e+03
7087.0453  1.779193e-01  4.100900e+03
7087.4457  2.429834e-01  4.172253e+03
7087.8461  8.849648e-02  4.003143e+03
7088.2465  8.120027e-02  3.995256e+03
7088.6469  9.995893e-02  4.015915e+03
7089.0474 -3.880872e-02  3.864044e+03
7089.4478  5.463373e-02  3.966518e+03
7089.8482  1.719624e-01  4.095161e+03
7090.2486  1.670665e-01  4.089941e+03
7090.6491  1.208829e-01  4.039506e+03
7091.0495  6.634752e-02  3.979931e+03
7091.4499 -2.161286e-03  3.905058e+03
7091.8503 -8.809797e-02  3.811104e+03
7092.2507  6.444287e-02  3.978357e+03
7092.6512  1.977367e-01  4.124536e+03
7093.0516  8.993315e-02  4.006651e+03
7093.4520  7.443017e-02  3.989869e+03
7093.8524  4.685909e-03  3.913683e+03
7094.2528  3.281141e-02  3.944698e+03
7094.6533 -6.061541e-04  3.908313e+03
7095.0537 -2.513387e-02  3.881670e+03
7095.4541  2.821588e-02  3.940332e+03
7095.8545  5.415539e-02  3.968977e+03
7096.2549 -1.204014e-02  3.896713e+03
7096.6554  1.228415e-01  4.044692e+03
7097.0558  4.994124e-02  3.965095e+03
7097.4562  5.538482e-02  3.971312e+03
7097.8566  9.569685e-02  4.015725e+03
7098.2571  7.913738e-02  3.997853e+03
7098.6575  2.419089e-02  3.937939e+03
7099.0579  2.893787e-02  3.943412e+03
7099.4583  4.233325e-02  3.958361e+03
7099.8587  1.569658e-03  3.913995e+03
7100.2592  2.197259e-02  3.936627e+03
7100.6596  5.804365e-02  3.976424e+03
7101.0600  2.635734e-02  3.942010e+03
7101.4604  7.766131e-02  3.998497e+03
7101.8608  2.769648e-02  3.944069e+03
7102.2613  8.836588e-02  4.010819e+03
7102.6617  1.259375e-01  4.052273e+03
7103.0621  1.118017e-01  4.037095e+03
7103.4625  6.289700e-02  3.983837e+03
7103.8630  9.972425e-03  3.926177e+03
7104.2634  4.617818e-02  3.966142e+03
7104.6638 -9.111268e-03  3.905895e+03
7105.0642 -3.607333e-02  3.876674e+03
7105.4646 -5.306813e-02  3.858372e+03
7105.8651  5.943917e-02  3.981911e+03
7106.2655  8.532771e-03  3.926465e+03
7106.6659  4.460970e-02  3.966291e+03
7107.0663  1.030425e-01  4.030602e+03
7107.4667  7.558832e-02  4.000841e+03
7107.8672  5.333386e-02  3.976774e+03
7108.2676  3.508798e-02  3.957096e+03
7108.6680  1.130200e-01  4.042759e+03
7109.0684  1.971986e-01  4.135261e+03
7109.4689  8.404497e-02  4.011625e+03
7109.8693  4.729563e-02  3.971670e+03
7110.2697 -7.504813e-02  3.837962e+03
7110.6701 -2.274835e-02  3.895535e+03
7111.0705  3.956065e-02  3.964067e+03
7111.4710 -1.350408e-02  3.906228e+03
7111.8714  2.166737e-02  3.945027e+03
7112.2718  1.115748e-01  4.043773e+03
7112.6722  1.549915e-02  3.938809e+03
7113.0726  1.088268e-01  4.041290e+03
7113.4731 -2.496623e-03  3.919614e+03
7113.8735  1.189354e-02  3.935623e+03
7114.2739  1.229505e-01  4.057502e+03
7114.6743  1.636621e-01  4.102327e+03
7115.0747  3.514256e-02  3.961787e+03
7115.4752 -1.637633e-02  3.905576e+03
7115.8756  3.334408e-02  3.960243e+03
7116.2760  4.664616e-02  3.975013e+03
7116.6764  7.336074e-02  4.004463e+03
7117.0769 -2.613934e-02  3.895663e+03
7117.4773 -1.252867e-02  3.910741e+03
7117.8777  4.392709e-02  3.972736e+03
7118.2781  1.188955e-01  4.054997e+03
7118.6785 -3.430970e-02  3.887331e+03
7119.0790 -2.409225e-02  3.898647e+03
7119.4794 -5.387093e-02  3.866144e+03
7119.8798 -3.670982e-02  3.885041e+03
7120.2802  5.209893e-03  3.931042e+03
7120.6806 -3.144904e-02  3.890963e+03
7121.0811  7.107423e-02  4.003314e+03
7121.4815 -8.659533e-02  3.830665e+03
7121.8819 -5.962582e-02  3.860234e+03
7122.2823 -3.004531e-02  3.892646e+03
7122.6828  2.225208e-02  3.949925e+03
7123.0832 -3.560641e-02  3.886534e+03
7123.4836 -2.918901e-02  3.893528e+03
7123.8840  1.029765e-02  3.936724e+03
7124.2844 -1.857274e-02  3.905031e+03
7124.6849 -1.459992e-02  3.909293e+03
7125.0853 -4.802988e-02  3.872570e+03
7125.4857 -1.247363e-01  3.788427e+03
7125.8861 -2.559191e-02  3.896871e+03
7126.2865  4.485174e-02  3.973859e+03
7126.6870 -4.958930e-02  3.870230e+03
7127.0874 -8.142027e-02  3.835157e+03
7127.4878 -7.212552e-02  3.845106e+03
7127.8882 -3.408919e-02  3.886513e+03
7128.2887  6.581538e-02  3.995660e+03
7128.6891  6.160302e-02  3.990747e+03
7129.0895  2.914062e-02  3.954868e+03
7129.4899  3.648749e-02  3.962568e+03
7129.8903 -2.448574e-02  3.895412e+03
7130.2908 -4.176855e-02  3.876085e+03
7130.6912  4.825064e-02  3.974259e+03
7131.0916  1.315527e-03  3.922403e+03
7131.4920 -4.062762e-03  3.916036e+03
7131.8924 -3.884149e-02  3.877441e+03
7132.2929 -3.746363e-02  3.878420e+03
7132.6933 -8.114298e-04  3.918006e+03
7133.0937  2.963342e-02  3.950765e+03
7133.4941  8.984167e-03  3.927532e+03
7133.8945  3.658098e-02  3.957113e+03
7134.2950 -7.103880e-02  3.838562e+03
7134.6954 -3.503912e-02  3.877286e+03
7135.0958 -1.309117e-02  3.900589e+03
7135.4962 -1.534235e-02  3.897354e+03
7135.8967  2.699645e-02  3.942927e+03
7136.2971 -2.434578e-02  3.885860e+03
7136.6975 -1.596220e-02  3.894177e+03
7137.0979  2.723416e-02  3.940591e+03
7137.4983 -1.143951e-01  3.784533e+03
7137.8988 -3.256100e-02  3.873198e+03
7138.2992 -9.529731e-02  3.803483e+03
7138.6996 -2.068125e-03  3.904559e+03
7139.1000 -6.296902e-02  3.836783e+03
7139.5004  2.341549e-02  3.930291e+03
7139.9009 -7.086790e-02  3.825879e+03
7140.3013 -6.963327e-02  3.826051e+03
7140.7017  1.410101e-02  3.916545e+03
7141.1021 -3.928123e-02  3.856820e+03
7141.5026 -5.899870e-03  3.892088e+03
7141.9030  4.119227e-02  3.942335e+03
7142.3034 -3.808562e-02  3.854132e+03
7142.7038  3.195572e-01  4.244442e+03
7143.1042  6.662511e-01  4.622721e+03
7143.5047  4.796659e-01  4.416867e+03
7143.9051  1.898237e-01  4.097876e+03
7144.3055 -2.291355e-02  3.863296e+03
7144.7059  8.902672e-02  3.984291e+03
7145.1063  9.980386e-02  3.994441e+03
7145.5068 -2.246917e-02  3.858821e+03
7145.9072  2.110360e-03  3.884005e+03
7146.3076 -2.478854e-02  3.852763e+03
7146.7080 -1.401066e-02  3.862745e+03
7147.1085  5.786986e-02  3.939608e+03
7147.5089  1.540860e-02  3.891192e+03
7147.9093 -3.705231e-02  3.831779e+03
7148.3097 -1.880946e-02  3.849764e+03
7148.7101 -6.826957e-02  3.793550e+03
7149.1106 -5.379874e-02  3.807314e+03
7149.5110 -7.790788e-03  3.855576e+03
7149.9114 -9.394374e-03  3.851645e+03
7150.3118  5.577803e-02  3.920808e+03
7150.7122  1.380660e-02  3.872572e+03
7151.1127  3.780998e-02  3.896552e+03
7151.5131 -4.236022e-02  3.806386e+03
7151.9135 -5.174998e-02  3.793700e+03
7152.3139  1.805846e-02  3.867712e+03
7152.7143 -4.206047e-02  3.799370e+03
7153.1148  6.505166e-02  3.914148e+03
7153.5152  4.308189e-02  3.887499e+03
7153.9156  7.466196e-02  3.919455e+03
7154.3160  6.121255e-02  3.902044e+03
7154.7165  6.444126e-02  3.902854e+03
7155.1169  3.512753e-02  3.867974e+03
7155.5173 -3.782374e-02  3.785252e+03
7155.9177  5.316506e-03  3.829636e+03
7156.3181  3.952853e-02  3.864195e+03
7156.7186  1.094380e-02  3.829927e+03
7157.1190  1.103151e-01  3.935760e+03
7157.5194  5.718596e-02  3.874516e+03
7157.9198  7.577811e-02  3.891780e+03
7158.3202 -8.452477e-02  3.713056e+03
7158.7207 -3.659195e-02  3.762363e+03
7159.1211  4.457874e-02  3.848029e+03
7159.5215  1.320783e-01  3.940581e+03
7159.9219  1.211227e-02  3.805852e+03
7160.3224 -7.168027e-02  3.710698e+03
7160.7228 -4.758054e-02  3.733671e+03
7161.1232  7.800999e-02  3.867760e+03
7161.5236 -2.491794e-02  3.751511e+03
7161.9240 -3.081731e-02  3.741491e+03
7162.3245  2.049969e-02  3.794094e+03
7162.7249  4.094159e-02  3.812836e+03
7163.1253 -3.531174e-02  3.725625e+03
7163.5257  8.689388e-03  3.770082e+03
7163.9261  4.560276e-02  3.806733e+03
7164.3266  1.297872e-01  3.895117e+03
7164.7270  3.486677e-03  3.752916e+03
7165.1274 -5.117840e-02  3.689134e+03
7165.5278 -1.057049e-01  3.625462e+03
7165.9283 -1.519361e-02  3.720607e+03
7166.3287  2.745139e-02  3.763283e+03
7166.7291  2.443325e-02  3.755905e+03
7167.1295  5.027353e-03  3.730537e+03
7167.5299  3.632378e-02  3.760664e+03
7167.9304 -9.257843e-02  3.615288e+03
7168.3308 -1.523260e-01  3.545618e+03
7168.7312 -1.372013e-01  3.557917e+03
7169.1316 -9.220770e-02  3.602894e+03
7169.5320  3.573189e-02  3.738684e+03
7169.9325  1.524230e-01  3.862119e+03
7170.3329  4.488484e-02  3.739923e+03
7170.7333  1.038430e-02  3.697690e+03
7171.1337 -6.174377e-02  3.614211e+03
7171.5342 -5.662012e-02  3.615312e+03
7171.9346  2.322448e-03  3.675328e+03
7172.3350 -7.879075e-02  3.581912e+03
7172.7354 -3.497106e-02  3.625303e+03
7173.1358 -6.282487e-02  3.590162e+03
7173.5363 -1.470051e-01  3.493299e+03
7173.9367 -2.755471e-01  3.347819e+03
7174.3371 -2.949714e-01  3.321829e+03
7174.7375 -2.988581e-01  3.312831e+03
7175.1379 -5.899961e-02  3.570780e+03
7175.5384 -2.373865e-02  3.604612e+03
7175.9388  3.867196e-02  3.668158e+03
7176.3392 -1.478431e-01  3.459039e+03
7176.7396 -1.072179e-01  3.498683e+03
7177.1400 -1.519511e-01  3.444816e+03
7177.5405 -1.664338e-01  3.424065e+03
7177.9409 -1.483605e-01  3.438955e+03
7178.3413 -2.593308e-01  3.312490e+03
7178.7417 -1.533155e-01  3.423673e+03
7179.1422 -1.064426e-02  3.574991e+03
7179.5426  5.881419e-02  3.646109e+03
7179.9430  1.029826e-01  3.689517e+03
7180.3434  1.726750e-01  3.760872e+03
7180.7438  6.412335e-02  3.636992e+03
7181.1443  3.266088e-02  3.597540e+03
7181.5447  3.410078e-02  3.594121e+03
7181.9451 -4.815323e-02  3.499031e+03
7182.3455 -1.923804e-01  3.336060e+03
7182.7459 -1.133308e-01  3.417642e+03
7183.1464 -2.610610e-02  3.508178e+03
7183.5468  5.026680e-02  3.586833e+03
7183.9472 -1.643432e-02  3.508784e+03
7184.3476  6.916843e-02  3.597558e+03
7184.7481 -4.866167e-02  3.463523e+03
7185.1485 -3.199084e-01  3.161462e+03
7185.5489 -3.740168e-01  3.097241e+03
7185.9493 -3.012847e-01  3.171960e+03
7186.3497 -1.384958e-01  3.345331e+03
7186.7502 -1.821440e-01  3.292611e+03
7187.1506 -2.281341e-01  3.237344e+03
7187.5510 -3.020973e-01  3.151458e+03
7187.9514 -2.333624e-01  3.221889e+03
7188.3518 -1.532466e-01  3.304809e+03
7188.7523  5.193575e-02  3.524739e+03
7189.1527  2.010201e-01  3.683252e+03
7189.5531  2.740206e-01  3.758460e+03
7189.9535  2.416719e-01  3.718313e+03
7190.3540  2.379200e-01  3.709520e+03
7190.7544  2.186251e-01  3.683738e+03
7191.1548  1.395128e-01  3.592476e+03
7191.5552  3.771292e-02  3.476403e+03
7191.9556 -7.588193e-02  3.347452e+03
7192.3561 -2.072208e-01  3.199110e+03
7192.7565 -2.471240e-01  3.150960e+03
7193.1569 -1.891302e-02  3.396520e+03
7193.5573  6.057051e-02  3.479229e+03
7193.9577 -7.310800e-02  3.328516e+03
7194.3582 -3.453683e-02  3.366518e+03
7194.7586  4.570301e-02  3.450215e+03
7195.1590  1.332296e-01  3.541951e+03
7195.5594  1.714989e-01  3.579795e+03
7195.9598  1.828953e-01  3.588267e+03
7196.3603  1.769314e-01  3.577788e+03
7196.7607  1.624295e-01  3.558023e+03
7197.1611  2.854389e-01  3.688940e+03
7197.5615  2.288900e-01  3.623259e+03
7197.9620  2.121845e-01  3.601291e+03
7198.3624  1.938672e-01  3.577631e+03
7198.7628  2.277192e-01  3.611187e+03
7199.1632  3.223328e-01  3.711374e+03
7199.5636  7.630219e-01  4.190692e+03
7199.9641  1.444165e-01  3.509862e+03
7200.3645  1.101123e-01  3.469094e+03
7200.7649 -3.231639e-03  3.341842e+03
7201.1653 -1.297725e-01  3.200224e+03
7201.5657 -2.878116e-01  3.024197e+03
7201.9662 -2.624322e-01  3.049158e+03
7202.3666 -7.373810e-02  3.253091e+03
7202.7670  7.236946e-02  3.410477e+03
7203.1674  1.497087e-01  3.492640e+03
7203.5679  2.344614e-01  3.583023e+03
7203.9683  1.622621e-01  3.501603e+03
7204.3687  1.066607e-01  3.438466e+03
7204.7691  5.077888e-02  3.375128e+03
7205.1695 -6.254858e-02  3.248980e+03
7205.5700 -4.630006e-02  3.264865e+03
7205.9704  1.077282e-01  3.431769e+03
7206.3708  8.697751e-02  3.407355e+03
7206.7712  1.111985e-01  3.432312e+03
7207.1716  2.171607e-02  3.332850e+03
7207.5721  6.240701e-02  3.376083e+03
7207.9725  1.407516e-01  3.460677e+03
7208.3729  2.954905e-01  3.629067e+03
7208.7733  3.154515e-01  3.649960e+03
7209.1738  3.574122e-01  3.695074e+03
7209.5742  3.022426e-01  3.633929e+03
7209.9746  2.375085e-01  3.562435e+03
7210.3750  3.624805e-01  3.698852e+03
7210.7754  2.977811e-01  3.627654e+03
7211.1759  2.921660e-01  3.621301e+03
7211.5763  3.546637e-01  3.689684e+03
7211.9767  3.394022e-01  3.673030e+03
7212.3771  2.885340e-01  3.617511e+03
7212.7775  3.343549e-01  3.668029e+03
7213.1780  4.929635e-01  3.842217e+03
7213.5784  3.411290e-01  3.676516e+03
7213.9788  4.474213e-01  3.793675e+03
7214.3792  4.463771e-01  3.793406e+03
7214.7796  3.456236e-01  3.684064e+03
7215.1801  3.949197e-01  3.739207e+03
7215.5805  3.914484e-01  3.736692e+03
7215.9809  3.185090e-01  3.658227e+03
7216.3813  3.190478e-01  3.660379e+03
7216.7818  3.328892e-01  3.677238e+03
7217.1822  2.969784e-01  3.639741e+03
7217.5826  2.623962e-01  3.603835e+03
7217.9830  3.035822e-01  3.651053e+03
7218.3834  2.877301e-01  3.635933e+03
7218.7839  2.861064e-01  3.636530e+03
7219.1843  3.015876e-01  3.655996e+03
7219.5847  4.523113e-01  3.823722e+03
7219.9851  3.589023e-01  3.724183e+03
7220.3855  2.362083e-01  3.592697e+03
7220.7860  3.062707e-01  3.672462e+03
7221.1864  3.511665e-01  3.724787e+03
7221.5868  3.356610e-01  3.711079e+03
7221.9872  3.062094e-01  3.682216e+03
7222.3877  2.140920e-01  3.584834e+03
7222.7881  2.704491e-01  3.650190e+03
7223.1885  1.381819e-01  3.509062e+03
7223.5889  1.838904e-01  3.562977e+03
7223.9893  8.378133e-03  3.374699e+03
7224.3898 -6.143244e-02  3.302297e+03
7224.7902 -9.229082e-02  3.272658e+03
7225.1906 -6.392563e-02  3.307981e+03
7225.5910  3.043894e-02  3.415683e+03
7225.9914  1.253295e-01  3.524048e+03
7226.3919  1.844305e-01  3.593294e+03
7226.7923  2.686224e-01  3.690100e+03
7227.1927  2.412709e-01  3.664804e+03
7227.5931  1.432358e-01  3.562156e+03
7227.9936  9.275527e-02  3.511654e+03
7228.3940  1.124320e-01  3.538048e+03
7228.7944  1.127272e-01  3.543261e+03
7229.1948  1.067910e-01  3.541690e+03
7229.5952  2.252456e-01  3.676396e+03
7229.9957  2.245778e-01  3.680655e+03
7230.3961  2.221614e-01  3.683018e+03
7230.7965  1.302339e-01  3.587351e+03
7231.1969  1.678012e-01  3.633520e+03
7231.5973  6.383585e-02  3.524664e+03
7231.9978 -3.565167e-02  3.420696e+03
7232.3982 -1.078235e-01  3.346621e+03
7232.7986 -1.148557e-01  3.343858e+03
7233.1990 -1.506603e-01  3.309535e+03
7233.5994 -2.426778e-01  3.213586e+03
7233.9999 -2.321842e-01  3.229849e+03
7234.4003 -1.662190e-01  3.306790e+03
7234.8007 -2.135061e-01  3.259595e+03
7235.2011 -2.158402e-01  3.261534e+03
7235.6016 -3.583226e-01  3.109854e+03
7236.0020 -3.832048e-01  3.086849e+03
7236.4024 -1.635079e-01  3.331584e+03
7236.8028 -9.161227e-02  3.414277e+03
7237.2032 -2.134156e-02  3.495016e+03
7237.6037  3.649152e-02  3.561944e+03
7238.0041  1.405910e-01  3.679342e+03
7238.4045  5.583133e-03  3.534627e+03
7238.8049  6.904789e-02  3.607059e+03
7239.2053  1.764706e-03  3.536028e+03
7239.6058 -2.417381e-02  3.510008e+03
7240.0062 -1.518559e-01  3.372255e+03
7240.4066 -1.669406e-01  3.357517e+03
7240.8070 -3.116165e-01  3.200507e+03
7241.2075 -4.140169e-01  3.089447e+03
7241.6079 -3.354890e-01  3.176181e+03
7242.0083 -3.030625e-01  3.212024e+03
7242.4087 -2.449046e-01  3.275631e+03
7242.8091 -1.554909e-01  3.373029e+03
7243.2096 -7.456084e-02  3.460668e+03
7243.6100 -1.303997e-01  3.398015e+03
7244.0104 -1.829428e-01  3.338454e+03
7244.4108 -3.102161e-01  3.196499e+03
7244.8112 -1.753593e-01  3.341081e+03
7245.2117 -7.640711e-02  3.445738e+03
7245.6121 -5.328435e-03  3.519238e+03
7246.0125  2.464504e-02  3.547060e+03
7246.4129  6.520532e-03  3.521514e+03
7246.8134 -9.129824e-02  3.407961e+03
7247.2138 -8.766577e-03  3.491193e+03
7247.6142  3.823437e-02  3.534726e+03
7248.0146  3.938869e-02  3.527226e+03
7248.4150  5.430813e-02  3.533950e+03
7248.8155  9.765726e-02  3.570926e+03
7249.2159  1.234728e-01  3.587772e+03
7249.6163  7.590688e-02  3.523282e+03
7250.0167  7.878429e-02  3.513041e+03
7250.4171  1.015395e-01  3.523531e+03
7250.8176  1.537978e-01  3.565254e+03
7251.2180  1.074252e-01  3.497824e+03
7251.6184  9.379543e-02  3.465090e+03
7252.0188  5.324164e-03  3.349172e+03
7252.4193  5.721121e-02  3.385731e+03
7252.8197 -1.415714e-02  3.285988e+03
7253.2201  3.470858e-02  3.316586e+03
7253.6205 -1.216391e-01  3.121018e+03
7254.0209 -7.215175e-02  3.149449e+03
7254.4214 -1.190909e-02  3.188160e+03
7254.8218 -1.300799e+00  1.747633e+03
7255.2222 -2.868611e+00  0.000000e+00
7255.6226 -2.839311e+00  0.000000e+00
7256.0230 -2.808443e+00  0.000000e+00
7256.4235 -2.775954e+00  0.000000e+00
